REQUEST           1001   20010914          3     141559               0  0    0
ENTRY            10552     860610                                 10552000    1
SUBENT        10552001     860610                                 10552001    1
BIB                  9         23                                 10552001    2
INSTITUTE  (1USARPI)                                              10552001    3
REFERENCE  (J,BAP,20,560(AN9),7504)                               10552001    4
           (P,ERDA-NDC-3,255,7605)                                10552001    5
           (P,COO-2479-4,5,75)                                    10552001    6
AUTHOR     (R.W.HOCKENBURY,W.R.KOSTE,R.A.SHAW)                    10552001    7
TITLE      CAPTURE CROSS SECTIONS OF 145-ND, 149-SM, 101-RU,      10552001    8
           102-RU, AND 104-RU.                                    10552001    9
FACILITY   (LINAC) RPI LINEAR ACCELERATOR                         10552001   10
CORRECTION DATA CORRECTED FOR IMPURITIES, SAMPLE CONTAINER, DEAD  10552001   11
           TIME AND BACKGROUND EFFECTS.                           10552001   12
ERR-ANALYS STATISTICAL UNCERTAINTY INCLUDES CONTRIBUTIONS FROM-   10552001   13
            RESONANCE USED TO NORMALIZE CAPTURE DATA              10552001   14
              NET RESONANCE COUNTS (0.3-0.5 PERCENT)              10552001   15
              RELATIVE FLUX NEAR RESONANCE (3 PERCENT)            10552001   16
              NEUTRON WIDTH (3 PERCENT)                           10552001   17
            KEV CAPTURE COUNTS (2-6 PERCENT)                      10552001   18
            KEV RELATIVE FLUX (3 PERCENT)                         10552001   19
STATUS     (APRVD) APPROVED BY R.W.HOCKENBURY 78/10/18.           10552001   20
            DATA RECEIVED ON PUNCHED CARDS, HOCKENBURY, 75/10.    10552001   21
HISTORY    (751022C)                                              10552001   22
           (780105U) BIB UPDATE                                   10552001   23
           (830913A) CONVERTED TO REACTION FORMALISM              10552001   24
           (860610A) BIB UPDATE.)                                 10552001   25
ENDBIB              23                                            10552001   26
NOCOMMON             0          0                                 10552001   27
ENDSUBENT           26                                            1055200199999
SUBENT        10552003     860610                                 10552003    1
BIB                  2          2                                 10552003    2
REACTION   (44-RU-102(N,G)44-RU-103,,SIG)                         10552003    3
MONITOR    NORMALIZED AT 415.2 EV RESONANCE.                      10552003    4
ENDBIB               2                                            10552003    5
NOCOMMON             0          0                                 10552003    6
DATA                 2        164                                 10552003    7
EN         DATA                                                   10552003    8
EV         B                                                      10552003    9
 1.6536E+04 8.3246E-02                                            10552003   10
 1.6608E+04 9.0287E-02                                            10552003   11
 1.6680E+04 9.2205E-02                                            10552003   12
 1.6753E+04 1.5452E-01                                            10552003   13
 1.6826E+04 2.4150E-01                                            10552003   14
 1.6900E+04 2.7192E-01                                            10552003   15
 1.6974E+04 3.5250E-01                                            10552003   16
 1.7049E+04 5.6792E-01                                            10552003   17
 1.7125E+04 4.1626E-01                                            10552003   18
 1.7200E+04 3.2518E-01                                            10552003   19
 1.7277E+04 3.4834E-01                                            10552003   20
 1.7353E+04 3.3971E-01                                            10552003   21
 1.7431E+04 3.0878E-01                                            10552003   22
 1.7509E+04 3.2080E-01                                            10552003   23
 1.7587E+04 2.7367E-01                                            10552003   24
 1.7666E+04 3.8845E-01                                            10552003   25
 1.7745E+04 2.7189E-01                                            10552003   26
 1.7825E+04 2.3845E-01                                            10552003   27
 1.7906E+04 4.2529E-01                                            10552003   28
 1.7987E+04 6.1357E-01                                            10552003   29
 1.8068E+04 4.1908E-01                                            10552003   30
 1.8151E+04 4.4089E-01                                            10552003   31
 1.8233E+04 4.6842E-01                                            10552003   32
 1.8317E+04 4.1220E-01                                            10552003   33
 1.8401E+04 3.1279E-01                                            10552003   34
 1.8485E+04 2.6392E-01                                            10552003   35
 1.8570E+04 3.8238E-01                                            10552003   36
 1.8656E+04 4.3168E-01                                            10552003   37
 1.8742E+04 3.9814E-01                                            10552003   38
 1.8829E+04 2.1820E-01                                            10552003   39
 1.8916E+04 1.2365E-01                                            10552003   40
 1.9004E+04 2.7769E-01                                            10552003   41
 1.9093E+04 3.2966E-01                                            10552003   42
 1.9182E+04 1.3814E-01                                            10552003   43
 1.9272E+04 1.0534E-01                                            10552003   44
 1.9362E+04 1.2544E-01                                            10552003   45
 1.9453E+04 1.1161E-01                                            10552003   46
 1.9545E+04 1.8327E-01                                            10552003   47
 1.9638E+04 1.6329E-01                                            10552003   48
 1.9731E+04 2.2366E-01                                            10552003   49
 1.9825E+04 2.9620E-01                                            10552003   50
 1.9919E+04 2.8674E-01                                            10552003   51
 2.0014E+04 2.7349E-01                                            10552003   52
 2.0110E+04 3.2469E-01                                            10552003   53
 2.0206E+04 3.9824E-01                                            10552003   54
 2.0304E+04 2.5028E-01                                            10552003   55
 2.0402E+04 2.9629E-01                                            10552003   56
 2.0500E+04 3.3955E-01                                            10552003   57
 2.0599E+04 3.6145E-01                                            10552003   58
 2.0700E+04 2.4796E-01                                            10552003   59
 2.0800E+04 2.6122E-01                                            10552003   60
 2.0902E+04 2.0947E-01                                            10552003   61
 2.1004E+04 2.0256E-01                                            10552003   62
 2.1107E+04 2.2815E-01                                            10552003   63
 2.1211E+04 1.9276E-01                                            10552003   64
 2.1315E+04 2.0336E-01                                            10552003   65
 2.1421E+04 3.2344E-01                                            10552003   66
 2.1527E+04 3.0296E-01                                            10552003   67
 2.1634E+04 2.4500E-01                                            10552003   68
 2.1741E+04 3.3506E-01                                            10552003   69
 2.1850E+04 4.9014E-01                                            10552003   70
 2.1959E+04 4.2863E-01                                            10552003   71
 2.2069E+04 2.6140E-01                                            10552003   72
 2.2180E+04 3.6376E-01                                            10552003   73
 2.2292E+04 3.9092E-01                                            10552003   74
 2.2405E+04 3.3430E-01                                            10552003   75
 2.2518E+04 3.2836E-01                                            10552003   76
 2.2633E+04 3.8761E-01                                            10552003   77
 2.2748E+04 2.8404E-01                                            10552003   78
 2.2864E+04 2.0682E-01                                            10552003   79
 2.2981E+04 2.6890E-01                                            10552003   80
 2.3099E+04 2.6964E-01                                            10552003   81
 2.3218E+04 2.5905E-01                                            10552003   82
 2.3337E+04 1.3686E-01                                            10552003   83
 2.3458E+04 1.7630E-01                                            10552003   84
 2.3580E+04 2.4794E-01                                            10552003   85
 2.3702E+04 2.6774E-01                                            10552003   86
 2.3826E+04 2.1652E-01                                            10552003   87
 2.3950E+04 2.5903E-01                                            10552003   88
 2.4076E+04 2.6637E-01                                            10552003   89
 2.4202E+04 2.9200E-01                                            10552003   90
 2.4329E+04 2.4121E-01                                            10552003   91
 2.4458E+04 3.2441E-01                                            10552003   92
 2.4587E+04 4.3532E-01                                            10552003   93
 2.4718E+04 4.0074E-01                                            10552003   94
 2.4849E+04 3.0614E-01                                            10552003   95
 2.4982E+04 2.2522E-01                                            10552003   96
 2.5116E+04 2.8900E-01                                            10552003   97
 2.5250E+04 2.9579E-01                                            10552003   98
 2.5386E+04 3.0965E-01                                            10552003   99
 2.5523E+04 2.7828E-01                                            10552003  100
 2.5661E+04 3.1674E-01                                            10552003  101
 2.5800E+04 3.2668E-01                                            10552003  102
 2.5941E+04 1.8812E-01                                            10552003  103
 2.6082E+04 2.0655E-01                                            10552003  104
 2.6225E+04 2.1976E-01                                            10552003  105
 2.6368E+04 1.9686E-01                                            10552003  106
 2.6513E+04 3.1383E-01                                            10552003  107
 2.6660E+04 2.9416E-01                                            10552003  108
 2.6807E+04 2.1868E-01                                            10552003  109
 2.6956E+04 2.7591E-01                                            10552003  110
 2.7105E+04 2.6654E-01                                            10552003  111
 2.7256E+04 2.6526E-01                                            10552003  112
 2.7409E+04 2.5245E-01                                            10552003  113
 2.7562E+04 2.6127E-01                                            10552003  114
 2.7717E+04 2.9124E-01                                            10552003  115
 2.7874E+04 2.8947E-01                                            10552003  116
 2.8031E+04 2.5454E-01                                            10552003  117
 2.8190E+04 1.4683E-01                                            10552003  118
 2.8350E+04 1.8200E-01                                            10552003  119
 2.8512E+04 2.2831E-01                                            10552003  120
 2.8675E+04 2.0632E-01                                            10552003  121
 2.8839E+04 2.2561E-01                                            10552003  122
 2.9005E+04 1.9600E-01                                            10552003  123
 2.9172E+04 1.6192E-01                                            10552003  124
 2.9341E+04 2.1637E-01                                            10552003  125
 2.9511E+04 2.1183E-01                                            10552003  126
 4.8880E+04 1.4018E-01                                            10552003  127
 4.9247E+04 1.2628E-01                                            10552003  128
 4.9617E+04 1.3696E-01                                            10552003  129
 4.9992E+04 1.2216E-01                                            10552003  130
 5.0371E+04 1.4324E-01                                            10552003  131
 5.0754E+04 1.3348E-01                                            10552003  132
 5.1142E+04 1.2384E-01                                            10552003  133
 5.1534E+04 1.3969E-01                                            10552003  134
 5.1931E+04 1.6697E-01                                            10552003  135
 5.2332E+04 1.7074E-01                                            10552003  136
 5.2738E+04 1.1434E-01                                            10552003  137
 5.3149E+04 1.3179E-01                                            10552003  138
 5.3564E+04 1.3476E-01                                            10552003  139
 5.3985E+04 1.4784E-01                                            10552003  140
 5.4410E+04 1.4697E-01                                            10552003  141
 5.4840E+04 1.5744E-01                                            10552003  142
 5.5276E+04 1.4521E-01                                            10552003  143
 5.5717E+04 1.7532E-01                                            10552003  144
 5.6163E+04 1.5646E-01                                            10552003  145
 5.6614E+04 1.3463E-01                                            10552003  146
 5.7071E+04 1.4563E-01                                            10552003  147
 5.7534E+04 1.3370E-01                                            10552003  148
 5.8002E+04 1.2618E-01                                            10552003  149
 5.8476E+04 1.2626E-01                                            10552003  150
 5.8955E+04 1.2918E-01                                            10552003  151
 5.9441E+04 1.4974E-01                                            10552003  152
 5.9933E+04 1.4042E-01                                            10552003  153
 6.0430E+04 1.2082E-01                                            10552003  154
 6.0934E+04 1.3872E-01                                            10552003  155
 6.1445E+04 1.1826E-01                                            10552003  156
 6.1961E+04 1.3705E-01                                            10552003  157
 6.2485E+04 1.3046E-01                                            10552003  158
 6.3015E+04 1.2349E-01                                            10552003  159
 6.3551E+04 1.4022E-01                                            10552003  160
 6.4095E+04 1.3042E-01                                            10552003  161
 6.4646E+04 1.2824E-01                                            10552003  162
 6.5203E+04 1.2215E-01                                            10552003  163
 6.5768E+04 1.2297E-01                                            10552003  164
 6.6341E+04 1.2406E-01                                            10552003  165
 6.6920E+04 1.2380E-01                                            10552003  166
 6.7508E+04 1.2927E-01                                            10552003  167
 6.8103E+04 9.8877E-02                                            10552003  168
 6.8706E+04 1.0567E-01                                            10552003  169
 6.9318E+04 1.2220E-01                                            10552003  170
 6.9937E+04 1.0900E-01                                            10552003  171
 7.0565E+04 1.1651E-01                                            10552003  172
 7.1201E+04 1.0000E-01                                            10552003  173
ENDDATA            166                                            10552003  174
ENDSUBENT          173                                            1055200399999
ENDENTRY             2                                            1055299999999
ENTRY            10875     860923                                 10875000    1
SUBENT        10875001     860923                                 10875001    1
BIB                 12         26                                 10875001    2
INSTITUTE  (1USAORL)                                              10875001    3
REFERENCE  (J,NSE,73,174,8002)                                    10875001    4
AUTHOR     (R.L.MACKLIN,J.HALPERIN)                               10875001    5
TITLE      RU-100,101,102,104(N,GAMMA) AND RH-103(N,GAMMA) CROSS  10875001    6
            SECTIONS ABOVE 2.6-KEV                                10875001    7
FACILITY   (LINAC) OAK RIDGE ELECTRON LINEAR ACCELERATOR          10875001    8
METHOD     (TOF) TIME OF FLIGHT WITH 40.12-METER FLIGHT PATH.     10875001    9
            BORON-10 FILTER USED TO ELIMINATE SLOW NEUTRON OVER-  10875001   10
            LAP.                                                  10875001   11
DETECTOR   (SCIN) TWO NON-HYDROGENOUS LIQUID SCINTILLATOR FOR     10875001   12
            DETECTION OF PROMPT GAMMAS. LI-6 GLASS SCINTILLATOR   10875001   13
            AS FLUX MONITOR.                                      10875001   14
MONITOR    (92-U-235(N,F),,SIG) FROM ENDF/B-V USED TO DETERMINE   10875001   15
            MONITOR EFFICIENCY                                    10875001   16
           SATURATED RESONANCE OF GOLD USED TO DETERMINE ABSOLUTE 10875001   17
            EFFICIENCY RATIO OF GAMMA AND FLUX DETECTORS.         10875001   18
CORRECTION CORRECTED FOR DEADTIME, GAMMA ENERGY LOSS IN SAMPLE    10875001   19
            (4-10 PERCENT), AND BACKGROUND.                       10875001   20
ERR-ANALYS STATISTICAL STANDARD DEVIATION RANGES FROM 0.1-0.2 EV  10875001   21
            FOR WELL DEFINED PEAKS.                               10875001   22
STATUS     DATA TAKEN FROM PRIVATE COMM., MACKLIN, 79/5.          10875001   23
           (APRVD) R.L.MACKLIN, 86/9/23.                          10875001   24
HISTORY    (791002C)                                              10875001   25
           (800310A) BIB CORRECTION                               10875001   26
           (801205A) STATUS COMMENT ADDED.                        10875001   27
           (860813A) BIB UPDATE.                                  10875001   28
ENDBIB              26                                            10875001   29
NOCOMMON             0          0                                 10875001   30
ENDSUBENT           29                                            1087500199999
SUBENT        10875014     860923                                 10875014    1
BIB                  4          5                                 10875014    2
REACTION   (44-RU-102(N,G)44-RU-103,,SIG,,AV)                     10875014    3
CORRECTION CORRECTED BY NNDC BY A FACTOR OF 0.9850 DUE TO ERROR IN10875014    4
            PROCESSING CODE.                                      10875014    5
STATUS     CORRECTED AS PER NUC.SCI.ENG.78,110(1981).             10875014    6
HISTORY    (860813A) REACTION, DATA CORRECTED.                    10875014    7
ENDBIB               5                                            10875014    8
NOCOMMON             0          0                                 10875014    9
DATA                 4        521                                 10875014   10
EN-MIN     EN-MAX     DATA       DATA-ERR                         10875014   11
KEV        KEV        MB         MB                               10875014   12
   2.625      2.875    5.6854E+02 4.1370E+00                      10875014   13
   2.875      3.125    3.1884E+02 3.9400E+00                      10875014   14
   3.125      3.375    3.0407E+02 4.0385E+00                      10875014   15
   3.375      3.625    1.6053E+03 6.2055E+00                      10875014   16
   3.625      3.875    5.0570E+02 4.6295E+00                      10875014   17
   3.875      4.125    3.9439E+02 4.5310E+00                      10875014   18
   4.125      4.375    2.8457E+02 4.1370E+00                      10875014   19
   4.375      4.625    5.3062E+02 4.9250E+00                      10875014   20
   4.625      4.875    1.0638E+01 2.7580E+00                      10875014   21
   4.875      5.125    7.8120E+02 5.7130E+00                      10875014   22
   5.125      5.375    8.2208E+02 6.1070E+00                      10875014   23
   5.375      5.625    7.8603E+02 5.7130E+00                      10875014   24
   5.625      5.875    4.0070E+02 4.8265E+00                      10875014   25
   5.875      6.125    4.1203E+02 4.9250E+00                      10875014   26
   6.125      6.375    2.1079E+02 4.0385E+00                      10875014   27
   6.375      6.625    9.3910E+02 5.9100E+00                      10875014   28
   6.625      6.875    7.3195E+02 5.9100E+00                      10875014   29
   6.875      7.125    4.7477E+02 5.1220E+00                      10875014   30
   7.125      7.375    5.3052E+02 5.2205E+00                      10875014   31
   7.375      7.625    8.1854E+01 3.0535E+00                      10875014   32
   7.625      7.875    1.8380E+02 3.8415E+00                      10875014   33
   7.875      8.125    7.8721E+02 6.3040E+00                      10875014   34
   8.125      8.375    5.0688E+02 5.2205E+00                      10875014   35
   8.375      8.625    4.6275E+02 5.1220E+00                      10875014   36
   8.625      8.875    6.9836E+01 3.1520E+00                      10875014   37
   8.875      9.125    7.2072E+02 6.3040E+00                      10875014   38
   9.125      9.375    6.4754E+02 6.1070E+00                      10875014   39
   9.375      9.625    1.9828E+02 4.0385E+00                      10875014   40
   9.625      9.875    3.2574E+02 4.7280E+00                      10875014   41
   9.875     10.125    3.3598E+02 4.7280E+00                      10875014   42
  10.125     10.375    2.3335E+02 4.3340E+00                      10875014   43
  10.375     10.625    6.8103E+02 6.5995E+00                      10875014   44
  10.625     10.875    2.0754E+02 4.1370E+00                      10875014   45
  10.875     11.125    8.0967E+01 3.2505E+00                      10875014   46
  11.125     11.375    3.8326E+02 5.4175E+00                      10875014   47
  11.375     11.625    4.3892E+02 5.5160E+00                      10875014   48
  11.625     11.875    3.3628E+02 5.0235E+00                      10875014   49
  11.875     12.125    5.4254E+02 5.9100E+00                      10875014   50
  12.125     12.375    3.9774E+02 4.9250E+00                      10875014   51
  12.375     12.625    4.5832E+02 5.6145E+00                      10875014   52
  12.625     12.875    3.7331E+02 5.2205E+00                      10875014   53
  12.875     13.125    6.3040E+02 6.7965E+00                      10875014   54
  13.125     13.375    3.3116E+02 5.1220E+00                      10875014   55
  13.375     13.625    2.3079E+02 4.4325E+00                      10875014   56
  13.625     13.875    3.3362E+02 5.3190E+00                      10875014   57
  13.875     14.125    4.5665E+02 5.9100E+00                      10875014   58
  14.125     14.375    1.7651E+02 4.1370E+00                      10875014   59
  14.375     14.625    1.4430E+02 3.9400E+00                      10875014   60
  14.625     14.875    1.6252E+02 3.9400E+00                      10875014   61
  14.875     15.125    4.6197E+02 6.1070E+00                      10875014   62
  15.125     15.375    3.5627E+02 5.5160E+00                      10875014   63
  15.375     15.625    2.5078E+02 4.7280E+00                      10875014   64
  15.625     15.875    3.0456E+02 5.2205E+00                      10875014   65
  15.875     16.125    3.0259E+02 5.3190E+00                      10875014   66
  16.125     16.375    6.2882E+02 7.1905E+00                      10875014   67
  16.375     16.625    3.3490E+01 2.8565E+00                      10875014   68
  16.625     16.875    9.4264E+01 3.5460E+00                      10875014   69
  16.875     17.125    3.1766E+02 5.4175E+00                      10875014   70
  17.125     17.375    3.0141E+02 5.2205E+00                      10875014   71
  17.375     17.625    1.8676E+02 4.1370E+00                      10875014   72
  17.625     17.875    2.4339E+02 5.2205E+00                      10875014   73
  17.875     18.125    3.6149E+02 5.7130E+00                      10875014   74
  18.125     18.375    4.8098E+02 6.4025E+00                      10875014   75
  18.375     18.625    1.9542E+02 4.5310E+00                      10875014   76
  18.625     18.875    3.7233E+02 6.0085E+00                      10875014   77
  18.875     19.125    2.7925E+02 5.2205E+00                      10875014   78
  19.125     19.375    6.4222E+01 3.0535E+00                      10875014   79
  19.375     19.625    8.8059E+01 3.4475E+00                      10875014   80
  19.625     19.875    1.2953E+02 4.0385E+00                      10875014   81
  19.875     20.125    1.8843E+02 4.5310E+00                      10875014   82
  20.125     20.375    2.9530E+02 5.4175E+00                      10875014   83
  20.375     20.625    3.9814E+02 6.3040E+00                      10875014   84
  20.625     20.875    2.2822E+02 4.8265E+00                      10875014   85
  20.875     21.125    1.3347E+02 3.9400E+00                      10875014   86
  21.125     21.375    1.5277E+02 4.4325E+00                      10875014   87
  21.375     21.625    1.9148E+02 4.7280E+00                      10875014   88
  21.625     21.875    3.4534E+02 5.9100E+00                      10875014   89
  21.875     22.125    2.4064E+02 5.1220E+00                      10875014   90
  22.125     22.375    3.2978E+02 5.8115E+00                      10875014   91
  22.375     22.625    3.3933E+02 5.9100E+00                      10875014   92
  22.625     22.875    2.3768E+02 5.0235E+00                      10875014   93
  22.875     23.125    1.6282E+02 4.5310E+00                      10875014   94
  23.125     23.375    1.7809E+02 4.6295E+00                      10875014   95
  23.375     23.625    1.0106E+02 3.7430E+00                      10875014   96
  23.625     23.875    2.1197E+02 4.8265E+00                      10875014   97
  23.875     24.125    2.2084E+02 5.1220E+00                      10875014   98
  24.125     24.375    2.0192E+02 4.9250E+00                      10875014   99
  24.375     24.625    2.8801E+02 5.7130E+00                      10875014  100
  24.625     24.875    3.7351E+02 6.3040E+00                      10875014  101
  24.875     25.125    1.9631E+02 4.9250E+00                      10875014  102
  25.125     25.375    1.9040E+02 4.8265E+00                      10875014  103
  25.375     25.625    2.0301E+02 5.1220E+00                      10875014  104
  25.625     25.875    3.6130E+02 6.4025E+00                      10875014  105
  25.875     26.125    1.0017E+02 3.9400E+00                      10875014  106
  26.125     26.375    1.5642E+02 4.4325E+00                      10875014  107
  26.375     26.625    2.9747E+02 6.0085E+00                      10875014  108
  26.625     26.875    1.3416E+02 4.5310E+00                      10875014  109
  26.875     27.125    2.5383E+02 5.6145E+00                      10875014  110
  27.125     27.375    1.8173E+02 5.2205E+00                      10875014  111
  27.375     27.625    2.4674E+02 5.6145E+00                      10875014  112
  27.625     27.875    2.3187E+02 5.6145E+00                      10875014  113
  27.875     28.125    2.6526E+02 6.1070E+00                      10875014  114
  28.125     28.375    7.8800E+01 3.8415E+00                      10875014  115
  28.375     28.625    2.6231E+02 6.0085E+00                      10875014  116
  28.625     28.875    1.3298E+02 4.4325E+00                      10875014  117
  28.875     29.125    2.1434E+02 5.4175E+00                      10875014  118
  29.125     29.375    1.6459E+02 5.1220E+00                      10875014  119
  29.375     29.625    1.4933E+02 4.6295E+00                      10875014  120
  29.625     29.875    1.1337E+02 4.3340E+00                      10875014  121
  29.875     30.125    1.8685E+02 5.1220E+00                      10875014  122
  30.125     30.375    1.6420E+02 5.1220E+00                      10875014  123
  30.375     30.625    1.7188E+02 5.1220E+00                      10875014  124
  30.625     30.875    1.8252E+02 5.2205E+00                      10875014  125
  30.875     31.125    1.2322E+02 4.5310E+00                      10875014  126
  31.125     31.375    8.4217E+01 4.1370E+00                      10875014  127
  31.375     31.625    2.3236E+02 5.5160E+00                      10875014  128
  31.625     31.875    2.0409E+02 5.4175E+00                      10875014  129
  31.875     32.125    1.7109E+02 5.1220E+00                      10875014  130
  32.125     32.375    1.5602E+02 4.9250E+00                      10875014  131
  32.375     32.625    1.3938E+02 4.7280E+00                      10875014  132
  32.625     32.875    1.6755E+02 5.1220E+00                      10875014  133
  32.875     33.125    1.6164E+02 5.0235E+00                      10875014  134
  33.125     33.375    3.2899E+01 3.3490E+00                      10875014  135
  33.375     33.625    2.1660E+02 5.7130E+00                      10875014  136
  33.625     33.875    1.9217E+02 5.5160E+00                      10875014  137
  33.875     34.125    1.5002E+02 5.1220E+00                      10875014  138
  34.125     34.375    8.6188E+01 4.0385E+00                      10875014  139
  34.375     34.625    1.4558E+02 4.9250E+00                      10875014  140
  34.625     34.875    1.4667E+02 4.8265E+00                      10875014  141
  34.875     35.125    1.0835E+02 4.7280E+00                      10875014  142
  35.125     35.375    2.4546E+02 6.2055E+00                      10875014  143
  35.375     35.625    1.1731E+02 4.6295E+00                      10875014  144
  35.625     35.875    1.6637E+02 5.2205E+00                      10875014  145
  35.875     36.125    2.1069E+02 5.7130E+00                      10875014  146
  36.125     36.375    1.5780E+02 4.9250E+00                      10875014  147
  36.375     36.625    1.0638E+02 4.5310E+00                      10875014  148
  36.625     36.875    1.5888E+02 5.1220E+00                      10875014  149
  36.875     37.125    2.0261E+02 5.5160E+00                      10875014  150
  37.125     37.375    1.3642E+02 4.9250E+00                      10875014  151
  37.375     37.625    1.9621E+02 5.7130E+00                      10875014  152
  37.625     37.875    6.2548E+01 3.6445E+00                      10875014  153
  37.875     38.125    1.6814E+02 5.3190E+00                      10875014  154
  38.125     38.375    1.2263E+02 4.6295E+00                      10875014  155
  38.375     38.625    2.1739E+02 5.9100E+00                      10875014  156
  38.625     38.875    2.1670E+02 5.8115E+00                      10875014  157
  38.875     39.125    1.9867E+02 5.7130E+00                      10875014  158
  39.125     39.375    1.5346E+02 5.1220E+00                      10875014  159
  39.375     39.625    1.4765E+02 5.2205E+00                      10875014  160
  39.625     39.875    2.3049E+02 6.1070E+00                      10875014  161
  39.875     40.125    2.3482E+02 6.3040E+00                      10875014  162
  40.125     40.375    1.7306E+02 5.4175E+00                      10875014  163
  40.375     40.625    1.0027E+02 4.4325E+00                      10875014  164
  40.625     40.875    1.3711E+02 5.0235E+00                      10875014  165
  40.875     41.125    1.0303E+02 4.4325E+00                      10875014  166
  41.125     41.375    1.5465E+02 5.4175E+00                      10875014  167
  41.375     41.625    1.1584E+02 4.6295E+00                      10875014  168
  41.625     41.875    1.5425E+02 5.2205E+00                      10875014  169
  41.875     42.125    1.5386E+02 5.0235E+00                      10875014  170
  42.125     42.375    1.2687E+02 4.8265E+00                      10875014  171
  42.375     42.625    1.0017E+02 4.4325E+00                      10875014  172
  42.625     42.875    1.3041E+02 4.8265E+00                      10875014  173
  42.875     43.125    1.4874E+02 4.9250E+00                      10875014  174
  43.125     43.375    1.4145E+02 5.0235E+00                      10875014  175
  43.375     43.625    1.4923E+02 5.1220E+00                      10875014  176
  43.625     43.875    1.6341E+02 5.2205E+00                      10875014  177
  43.875     44.125    1.1298E+02 4.7280E+00                      10875014  178
  44.125     44.375    7.6633E+01 4.1370E+00                      10875014  179
  44.375     44.625    9.1309E+01 4.4325E+00                      10875014  180
  44.625     44.875    1.5652E+02 5.3190E+00                      10875014  181
  44.875     45.125    1.9148E+02 5.7130E+00                      10875014  182
  45.125     45.375    1.2854E+02 4.9250E+00                      10875014  183
  45.375     45.625    1.1830E+02 5.0235E+00                      10875014  184
  45.625     45.875    1.1938E+02 4.8265E+00                      10875014  185
  45.875     46.125    1.5957E+02 5.2205E+00                      10875014  186
  46.125     46.375    9.5644E+01 4.4325E+00                      10875014  187
  46.375     46.625    1.5799E+02 5.5160E+00                      10875014  188
  46.625     46.875    8.6877E+01 4.2355E+00                      10875014  189
  46.875     47.125    1.0776E+02 4.7280E+00                      10875014  190
  47.125     47.375    1.6164E+02 5.5160E+00                      10875014  191
  47.375     47.625    1.6213E+02 5.3190E+00                      10875014  192
  47.625     47.875    1.3475E+02 4.9250E+00                      10875014  193
  47.875     48.125    1.0126E+02 4.6295E+00                      10875014  194
  48.125     48.375    1.4401E+02 5.2205E+00                      10875014  195
  48.375     48.625    1.7228E+02 5.7130E+00                      10875014  196
  48.625     48.875    1.4716E+02 5.1220E+00                      10875014  197
  48.875     49.125    7.4170E+01 4.1370E+00                      10875014  198
  49.125     49.375    1.6095E+02 5.4175E+00                      10875014  199
  49.375     49.625    7.1314E+01 3.8415E+00                      10875014  200
  49.625     49.875    1.0943E+02 4.7280E+00                      10875014  201
  49.875     50.125    1.3012E+02 5.1220E+00                      10875014  202
  50.125     50.375    1.4066E+02 5.4175E+00                      10875014  203
  50.375     50.625    1.4637E+02 5.3190E+00                      10875014  204
  50.625     50.875    8.7172E+01 4.4325E+00                      10875014  205
  50.875     51.125    1.2992E+02 5.2205E+00                      10875014  206
  51.125     51.375    4.6886E+01 3.7430E+00                      10875014  207
  51.375     51.625    1.5277E+02 5.3190E+00                      10875014  208
  51.625     51.875    1.4154E+02 5.2205E+00                      10875014  209
  51.875     52.125    1.8410E+02 5.8115E+00                      10875014  210
  52.125     52.375    1.8124E+02 6.0085E+00                      10875014  211
  52.375     52.625    5.8411E+01 3.9400E+00                      10875014  212
  52.625     52.875    1.3682E+02 5.2205E+00                      10875014  213
  52.875     53.125    1.3869E+02 5.3190E+00                      10875014  214
  53.125     53.375    9.9288E+01 4.6295E+00                      10875014  215
  53.375     53.625    9.5644E+01 4.5310E+00                      10875014  216
  53.625     53.875    9.4068E+01 4.6295E+00                      10875014  217
  53.875     54.125    1.3327E+02 5.3190E+00                      10875014  218
  54.125     54.375    1.3859E+02 5.2205E+00                      10875014  219
  54.375     54.625    1.3948E+02 5.4175E+00                      10875014  220
  54.625     54.875    1.4381E+02 5.4175E+00                      10875014  221
  54.875     55.125    8.9734E+01 4.3340E+00                      10875014  222
  55.125     55.375    1.1495E+02 4.8265E+00                      10875014  223
  55.375     55.625    1.1672E+02 5.1220E+00                      10875014  224
  55.625     55.875    1.6252E+02 5.3190E+00                      10875014  225
  55.875     56.125    1.3061E+02 5.3190E+00                      10875014  226
  56.125     56.375    1.3701E+02 5.3190E+00                      10875014  227
  56.375     56.625    9.7515E+01 4.6295E+00                      10875014  228
  56.625     56.875    1.5070E+02 5.4175E+00                      10875014  229
  56.875     57.125    1.5090E+02 5.3190E+00                      10875014  230
  57.125     57.375    7.3087E+01 4.2355E+00                      10875014  231
  57.375     57.625    1.5849E+02 5.7130E+00                      10875014  232
  57.625     57.875    7.0427E+01 4.0385E+00                      10875014  233
  57.875     58.125    1.0490E+02 4.7280E+00                      10875014  234
  58.125     58.375    6.0282E+01 3.9400E+00                      10875014  235
  58.375     58.625    1.6696E+02 5.6145E+00                      10875014  236
  58.625     58.875    1.1002E+02 4.6295E+00                      10875014  237
  58.875     59.125    1.3268E+02 5.0235E+00                      10875014  238
  59.125     59.375    1.2381E+02 5.0235E+00                      10875014  239
  59.375     59.625    1.3455E+02 5.3190E+00                      10875014  240
  59.625     59.875    9.8401E+01 4.3340E+00                      10875014  241
  59.875     60.125    8.1459E+01 4.6295E+00                      10875014  242
  60.125     60.375    1.0855E+02 4.6295E+00                      10875014  243
  60.375     60.625    1.4253E+02 5.3190E+00                      10875014  244
  60.625     60.875    1.1554E+02 4.7280E+00                      10875014  245
  60.875     61.125    6.1957E+01 3.9400E+00                      10875014  246
  61.125     61.375    7.8504E+01 4.4325E+00                      10875014  247
  61.375     61.625    1.0894E+02 4.8265E+00                      10875014  248
  61.625     61.875    1.7740E+02 6.0085E+00                      10875014  249
  61.875     62.125    1.3091E+02 5.1220E+00                      10875014  250
  62.125     62.375    4.3635E+01 3.5460E+00                      10875014  251
  62.375     62.625    1.2066E+02 5.2205E+00                      10875014  252
  62.625     62.875    1.5336E+02 5.4175E+00                      10875014  253
  62.875     63.125    1.2047E+02 4.9250E+00                      10875014  254
  63.125     63.375    1.1180E+02 5.0235E+00                      10875014  255
  63.375     63.625    1.0835E+02 4.9250E+00                      10875014  256
  63.625     63.875    1.1318E+02 5.1220E+00                      10875014  257
  63.875     64.125    9.1802E+01 4.7280E+00                      10875014  258
  64.125     64.375    1.0155E+02 4.7280E+00                      10875014  259
  64.375     64.625    1.7533E+02 5.7130E+00                      10875014  260
  64.625     64.875    1.0126E+02 4.8265E+00                      10875014  261
  64.875     65.125    8.6384E+01 4.6295E+00                      10875014  262
  65.125     65.375    1.5366E+02 5.5160E+00                      10875014  263
  65.375     65.625    1.0855E+02 5.0235E+00                      10875014  264
  65.625     65.875    6.8851E+01 4.2355E+00                      10875014  265
  65.875     66.125    1.2480E+02 5.4175E+00                      10875014  266
  66.125     66.375    1.2982E+02 5.3190E+00                      10875014  267
  66.375     66.625    1.2313E+02 5.3190E+00                      10875014  268
  66.625     66.875    1.7809E+02 6.3040E+00                      10875014  269
  66.875     67.125    1.2204E+02 5.1220E+00                      10875014  270
  67.125     67.375    1.6371E+02 5.9100E+00                      10875014  271
  67.375     67.625    1.2480E+02 5.2205E+00                      10875014  272
  67.625     67.875    1.0845E+02 4.9250E+00                      10875014  273
  67.875     68.125    5.9100E+01 4.1370E+00                      10875014  274
  68.125     68.375    8.8847E+01 4.7280E+00                      10875014  275
  68.375     68.625    1.3563E+02 5.5160E+00                      10875014  276
  68.625     68.875    1.3672E+02 5.6145E+00                      10875014  277
  68.875     69.125    7.5352E+01 4.4325E+00                      10875014  278
  69.125     69.375    1.4893E+02 5.9100E+00                      10875014  279
  69.375     69.625    1.0283E+02 4.9250E+00                      10875014  280
  69.625     69.875    1.3889E+02 5.5160E+00                      10875014  281
  69.875     70.125    7.8997E+01 4.3340E+00                      10875014  282
  70.125     70.375    1.0894E+02 5.1220E+00                      10875014  283
  70.375     70.625    1.1534E+02 5.1220E+00                      10875014  284
  70.625     70.875    1.3110E+02 5.3190E+00                      10875014  285
  70.875     71.125    9.5052E+01 4.8265E+00                      10875014  286
  71.125     71.375    1.0352E+02 4.7280E+00                      10875014  287
  71.375     71.625    9.1901E+01 4.7280E+00                      10875014  288
  71.625     71.875    9.7121E+01 4.8265E+00                      10875014  289
  71.875     72.125    1.2450E+02 5.4175E+00                      10875014  290
  72.125     72.375    1.3130E+02 5.3190E+00                      10875014  291
  72.375     72.625    6.2449E+01 4.1370E+00                      10875014  292
  72.625     72.875    1.0323E+02 5.2205E+00                      10875014  293
  72.875     73.125    7.8307E+01 4.5310E+00                      10875014  294
  73.125     73.375    7.9292E+01 4.4325E+00                      10875014  295
  73.375     73.625    1.2086E+02 5.3190E+00                      10875014  296
  73.625     73.875    1.0047E+02 4.8265E+00                      10875014  297
  73.875     74.125    1.2431E+02 5.3190E+00                      10875014  298
  74.125     74.375    1.2470E+02 5.3190E+00                      10875014  299
  74.375     74.625    1.2628E+02 5.5160E+00                      10875014  300
  74.625     74.875    6.4222E+01 4.4325E+00                      10875014  301
  74.875     75.125    5.4963E+01 3.7430E+00                      10875014  302
  75.125     75.375    6.8260E+01 4.2355E+00                      10875014  303
  75.375     75.625    7.9785E+01 4.5310E+00                      10875014  304
  75.625     75.875    1.3120E+02 5.5160E+00                      10875014  305
  75.875     76.125    1.2391E+02 5.4175E+00                      10875014  306
  76.125     76.375    1.1111E+02 5.3190E+00                      10875014  307
  76.375     76.625    8.7566E+01 4.7280E+00                      10875014  308
  76.625     76.875    9.5348E+01 4.9250E+00                      10875014  309
  76.875     77.125    6.4123E+01 4.2355E+00                      10875014  310
  77.125     77.375    9.7023E+01 5.0235E+00                      10875014  311
  77.375     77.625    1.0313E+02 5.1220E+00                      10875014  312
  77.625     77.875    5.6342E+01 4.1370E+00                      10875014  313
  77.875     78.125    8.5399E+01 4.6295E+00                      10875014  314
  78.125     78.375    7.9588E+01 4.7280E+00                      10875014  315
  78.375     78.625    9.9879E+01 5.0235E+00                      10875014  316
  78.625     78.875    7.1117E+01 4.5310E+00                      10875014  317
  78.875     79.125    1.0658E+02 5.1220E+00                      10875014  318
  79.125     79.375    1.0392E+02 5.3190E+00                      10875014  319
  79.375     79.625    7.8504E+01 4.7280E+00                      10875014  320
  79.625     79.875    7.6042E+01 4.6295E+00                      10875014  321
  79.875     80.125    1.0618E+02 5.2205E+00                      10875014  322
  80.125     80.375    1.1938E+02 5.4175E+00                      10875014  323
  80.375     80.625    7.3974E+01 4.4325E+00                      10875014  324
  80.625     80.875    1.0461E+02 5.0235E+00                      10875014  325
  80.875     81.125    9.8697E+01 5.1220E+00                      10875014  326
  81.125     81.375    8.8551E+01 5.0235E+00                      10875014  327
  81.375     81.625    9.7614E+01 5.2205E+00                      10875014  328
  81.625     81.875    1.0333E+02 5.2205E+00                      10875014  329
  81.875     82.125    9.7515E+01 4.9250E+00                      10875014  330
  82.125     82.375    1.2322E+02 5.5160E+00                      10875014  331
  82.375     82.625    1.1978E+02 5.6145E+00                      10875014  332
  82.625     82.875    8.6286E+01 4.7280E+00                      10875014  333
  82.875     83.125    1.2963E+02 5.9100E+00                      10875014  334
  83.125     83.375    1.3169E+02 5.9100E+00                      10875014  335
  83.375     83.625    1.1958E+02 5.7130E+00                      10875014  336
  83.625     83.875    6.6094E+01 4.4325E+00                      10875014  337
  83.875     84.125    1.0874E+02 5.2205E+00                      10875014  338
  84.125     84.375    7.7519E+01 4.7280E+00                      10875014  339
  84.375     84.625    1.0175E+02 5.1220E+00                      10875014  340
  84.625     84.875    1.0658E+02 5.3190E+00                      10875014  341
  84.875     85.125    9.9288E+01 5.0235E+00                      10875014  342
  85.125     85.375    1.1032E+02 5.4175E+00                      10875014  343
  85.375     85.625    1.1042E+02 5.4175E+00                      10875014  344
  85.625     85.875    1.0993E+02 5.4175E+00                      10875014  345
  85.875     86.125    7.2102E+01 4.7280E+00                      10875014  346
  86.125     86.375    7.4072E+01 4.4325E+00                      10875014  347
  86.375     86.625    7.0034E+01 4.6295E+00                      10875014  348
  86.625     86.875    1.0027E+02 5.5160E+00                      10875014  349
  86.875     87.125    1.2145E+02 5.9100E+00                      10875014  350
  87.125     87.375    1.3475E+02 6.0085E+00                      10875014  351
  87.375     87.625    1.0106E+02 5.2205E+00                      10875014  352
  87.625     87.875    1.1298E+02 5.5160E+00                      10875014  353
  87.875     88.125    6.8064E+01 4.6295E+00                      10875014  354
  88.125     88.375    8.5793E+01 5.0235E+00                      10875014  355
  88.375     88.625    1.3603E+02 6.2055E+00                      10875014  356
  88.625     88.875    7.8012E+01 4.8265E+00                      10875014  357
  88.875     89.125    8.9241E+01 5.0235E+00                      10875014  358
  89.125     89.375    9.4363E+01 5.1220E+00                      10875014  359
  89.375     89.625    1.2510E+02 5.6145E+00                      10875014  360
  89.625     89.875    7.5352E+01 4.5310E+00                      10875014  361
  89.875     90.125    8.4611E+01 4.9250E+00                      10875014  362
  90.125     90.375    8.8453E+01 5.3190E+00                      10875014  363
  90.375     90.625    8.2149E+01 5.0235E+00                      10875014  364
  90.625     90.875    1.1633E+02 5.7130E+00                      10875014  365
  90.875     91.125    9.0423E+01 5.0235E+00                      10875014  366
  91.125     91.375    5.4273E+01 4.1370E+00                      10875014  367
  91.375     91.625    1.0008E+02 5.5160E+00                      10875014  368
  91.625     91.875    1.1170E+02 5.5160E+00                      10875014  369
  91.875     92.125    6.9738E+01 4.6295E+00                      10875014  370
  92.125     92.375    6.9738E+01 4.8265E+00                      10875014  371
  92.375     92.625    6.4714E+01 4.8265E+00                      10875014  372
  92.625     92.875    8.7271E+01 5.0235E+00                      10875014  373
  92.875     93.125    1.0283E+02 5.8115E+00                      10875014  374
  93.125     93.375    7.5747E+01 4.6295E+00                      10875014  375
  93.375     93.625    9.4757E+01 5.4175E+00                      10875014  376
  93.625     93.875    8.4217E+01 5.2205E+00                      10875014  377
  93.875     94.125    8.5596E+01 5.0235E+00                      10875014  378
  94.125     94.375    7.1413E+01 4.7280E+00                      10875014  379
  94.375     94.625    6.7472E+01 4.6295E+00                      10875014  380
  94.625     94.875    8.9832E+01 5.4175E+00                      10875014  381
  94.875     95.125    9.2590E+01 5.1220E+00                      10875014  382
  95.125     95.375    6.6586E+01 4.3340E+00                      10875014  383
  95.375     95.625    5.8214E+01 4.4325E+00                      10875014  384
  95.625     95.875    8.4907E+01 5.1220E+00                      10875014  385
  95.875     96.125    1.0894E+02 5.9100E+00                      10875014  386
  96.125     96.375    1.0638E+02 5.7130E+00                      10875014  387
  96.375     96.625    8.2740E+01 5.1220E+00                      10875014  388
  96.625     96.875    6.2351E+01 4.4325E+00                      10875014  389
  96.875     97.125    7.2791E+01 4.9250E+00                      10875014  390
  97.125     97.375    1.2500E+02 6.2055E+00                      10875014  391
  97.375     97.625    1.1446E+02 5.8115E+00                      10875014  392
  97.625     97.875    8.6680E+01 5.2205E+00                      10875014  393
  97.875     98.125    7.7125E+01 4.9250E+00                      10875014  394
  98.125     98.375    1.0865E+02 5.7130E+00                      10875014  395
  98.375     98.625    9.5742E+01 5.5160E+00                      10875014  396
  98.625     98.875    6.4222E+01 4.9250E+00                      10875014  397
  98.875     99.125    8.6581E+01 5.3190E+00                      10875014  398
  99.125     99.375    8.5991E+01 5.3190E+00                      10875014  399
  99.375     99.625    1.2125E+02 5.9100E+00                      10875014  400
  99.625     99.875    1.0155E+02 5.6145E+00                      10875014  401
 100.000    101.000    8.8748E+01 2.6595E+00                      10875014  402
 101.000    102.000    8.3134E+01 2.5610E+00                      10875014  403
 102.000    103.000    9.0127E+01 2.7580E+00                      10875014  404
 103.000    104.000    6.4321E+01 2.4625E+00                      10875014  405
 104.000    105.000    8.1459E+01 2.5610E+00                      10875014  406
 105.000    106.000    8.4809E+01 2.6595E+00                      10875014  407
 106.000    107.000    1.0293E+02 2.8565E+00                      10875014  408
 107.000    108.000    9.7811E+01 2.8565E+00                      10875014  409
 108.000    109.000    9.2097E+01 2.7580E+00                      10875014  410
 109.000    110.000    7.8701E+01 2.5610E+00                      10875014  411
 110.000    111.000    7.6633E+01 2.6595E+00                      10875014  412
 111.000    112.000    8.4415E+01 2.6595E+00                      10875014  413
 112.000    113.000    9.2787E+01 2.7580E+00                      10875014  414
 113.000    114.000    9.5644E+01 2.8565E+00                      10875014  415
 114.000    115.000    7.1215E+01 2.5610E+00                      10875014  416
 115.000    116.000    8.1459E+01 2.6595E+00                      10875014  417
 116.000    117.000    8.1164E+01 2.7580E+00                      10875014  418
 117.000    118.000    8.7960E+01 2.6595E+00                      10875014  419
 118.000    119.000    9.2984E+01 2.8565E+00                      10875014  420
 119.000    120.000    8.6483E+01 2.8565E+00                      10875014  421
 120.000    121.000    8.9931E+01 2.8565E+00                      10875014  422
 121.000    122.000    8.9142E+01 2.8565E+00                      10875014  423
 122.000    123.000    9.0521E+01 2.8565E+00                      10875014  424
 123.000    124.000    1.0067E+02 3.0535E+00                      10875014  425
 124.000    125.000    8.4710E+01 2.8565E+00                      10875014  426
 125.000    126.000    9.0915E+01 2.8565E+00                      10875014  427
 126.000    127.000    1.0175E+02 2.9550E+00                      10875014  428
 127.000    128.000    9.1901E+01 2.8565E+00                      10875014  429
 128.000    129.000    9.8401E+01 3.0535E+00                      10875014  430
 129.000    130.000    9.1506E+01 2.8565E+00                      10875014  431
 130.000    131.000    7.6436E+01 2.6595E+00                      10875014  432
 131.000    132.000    7.7027E+01 2.7580E+00                      10875014  433
 132.000    133.000    8.3922E+01 2.7580E+00                      10875014  434
 133.000    134.000    7.4072E+01 2.7580E+00                      10875014  435
 134.000    135.000    8.1459E+01 2.7580E+00                      10875014  436
 135.000    136.000    8.6089E+01 2.8565E+00                      10875014  437
 136.000    137.000    7.0329E+01 2.6595E+00                      10875014  438
 137.000    138.000    8.5596E+01 2.8565E+00                      10875014  439
 138.000    139.000    8.6680E+01 2.7580E+00                      10875014  440
 139.000    140.000    8.4513E+01 2.8565E+00                      10875014  441
 140.000    141.000    7.8800E+01 2.8565E+00                      10875014  442
 141.000    142.000    8.1952E+01 2.8565E+00                      10875014  443
 142.000    143.000    9.0817E+01 2.9550E+00                      10875014  444
 143.000    144.000    8.3134E+01 2.8565E+00                      10875014  445
 144.000    145.000    8.3429E+01 2.9550E+00                      10875014  446
 145.000    146.000    8.1459E+01 2.8565E+00                      10875014  447
 146.000    147.000    7.9785E+01 2.8565E+00                      10875014  448
 147.000    148.000    8.1755E+01 2.9550E+00                      10875014  449
 148.000    149.000    8.0474E+01 2.8565E+00                      10875014  450
 149.000    150.000    7.3678E+01 2.7580E+00                      10875014  451
 150.000    151.000    7.8899E+01 2.9550E+00                      10875014  452
 151.000    152.000    8.6089E+01 2.9550E+00                      10875014  453
 152.000    153.000    7.1905E+01 2.7580E+00                      10875014  454
 153.000    154.000    7.9194E+01 2.7580E+00                      10875014  455
 154.000    155.000    9.4166E+01 3.0535E+00                      10875014  456
 155.000    156.000    9.2491E+01 3.1520E+00                      10875014  457
 156.000    157.000    8.4710E+01 2.9550E+00                      10875014  458
 157.000    158.000    7.8701E+01 2.8565E+00                      10875014  459
 158.000    159.000    6.9836E+01 2.7580E+00                      10875014  460
 159.000    160.000    7.1708E+01 2.7580E+00                      10875014  461
 160.000    161.000    8.4119E+01 2.9550E+00                      10875014  462
 161.000    162.000    8.4907E+01 2.9550E+00                      10875014  463
 162.000    163.000    8.6483E+01 3.0535E+00                      10875014  464
 163.000    164.000    8.8158E+01 3.1520E+00                      10875014  465
 164.000    165.000    7.2201E+01 2.7580E+00                      10875014  466
 165.000    166.000    7.6830E+01 2.8565E+00                      10875014  467
 166.000    167.000    8.2641E+01 2.9550E+00                      10875014  468
 167.000    168.000    7.2102E+01 2.8565E+00                      10875014  469
 168.000    169.000    7.9490E+01 2.9550E+00                      10875014  470
 169.000    170.000    8.2740E+01 3.0535E+00                      10875014  471
 170.000    171.000    8.0869E+01 2.9550E+00                      10875014  472
 171.000    172.000    6.6881E+01 2.6595E+00                      10875014  473
 172.000    173.000    8.7468E+01 3.2505E+00                      10875014  474
 173.000    174.000    7.5648E+01 2.9550E+00                      10875014  475
 174.000    175.000    7.1609E+01 2.8565E+00                      10875014  476
 175.000    176.000    8.8453E+01 3.0535E+00                      10875014  477
 176.000    177.000    8.8847E+01 3.0535E+00                      10875014  478
 177.000    178.000    9.4659E+01 3.2505E+00                      10875014  479
 178.000    179.000    8.0869E+01 2.8565E+00                      10875014  480
 179.000    180.000    7.6535E+01 2.9550E+00                      10875014  481
 180.000    181.000    8.3626E+01 3.0535E+00                      10875014  482
 181.000    182.000    8.1164E+01 2.9550E+00                      10875014  483
 182.000    183.000    9.1704E+01 3.1520E+00                      10875014  484
 183.000    184.000    7.7224E+01 2.9550E+00                      10875014  485
 184.000    185.000    8.5596E+01 3.1520E+00                      10875014  486
 185.000    186.000    8.6089E+01 3.0535E+00                      10875014  487
 186.000    187.000    8.7370E+01 3.2505E+00                      10875014  488
 187.000    188.000    8.0474E+01 3.0535E+00                      10875014  489
 188.000    189.000    8.6483E+01 3.1520E+00                      10875014  490
 189.000    190.000    8.6581E+01 3.1520E+00                      10875014  491
 190.000    191.000    8.4710E+01 3.1520E+00                      10875014  492
 191.000    192.000    7.6042E+01 2.9550E+00                      10875014  493
 192.000    193.000    8.4513E+01 3.2505E+00                      10875014  494
 193.000    194.000    8.1164E+01 3.1520E+00                      10875014  495
 194.000    195.000    8.3824E+01 3.0535E+00                      10875014  496
 195.000    196.000    7.7519E+01 3.0535E+00                      10875014  497
 196.000    197.000    8.4710E+01 3.1520E+00                      10875014  498
 197.000    198.000    7.6239E+01 3.0535E+00                      10875014  499
 198.000    199.000    8.1755E+01 3.1520E+00                      10875014  500
 199.000    200.000    8.4316E+01 3.2505E+00                      10875014  501
 202.000    203.000    7.9982E+01 1.3790E+00                      10875014  502
 207.000    208.000    8.2641E+01 1.3790E+00                      10875014  503
 212.000    213.000    7.6731E+01 1.3790E+00                      10875014  504
 217.000    218.000    8.2248E+01 1.4775E+00                      10875014  505
 222.000    223.000    7.5944E+01 1.3790E+00                      10875014  506
 227.000    228.000    7.9884E+01 1.4775E+00                      10875014  507
 232.000    233.000    7.3678E+01 1.3790E+00                      10875014  508
 237.000    238.000    8.3134E+01 1.4775E+00                      10875014  509
 242.000    243.000    7.4368E+01 1.3790E+00                      10875014  510
 247.000    248.000    7.9686E+01 1.4775E+00                      10875014  511
 252.000    253.000    7.2594E+01 1.3790E+00                      10875014  512
 257.000    258.000    7.4663E+01 1.3790E+00                      10875014  513
 262.000    263.000    7.8307E+01 1.4775E+00                      10875014  514
 267.000    268.000    7.8603E+01 1.4775E+00                      10875014  515
 272.000    273.000    7.7519E+01 1.4775E+00                      10875014  516
 277.000    278.000    8.4415E+01 1.5760E+00                      10875014  517
 282.000    283.000    7.4860E+01 1.4775E+00                      10875014  518
 287.000    288.000    7.8997E+01 1.4775E+00                      10875014  519
 292.000    293.000    7.6535E+01 1.4775E+00                      10875014  520
 297.000    298.000    7.7914E+01 1.4775E+00                      10875014  521
 312.000    313.000    7.7421E+01 6.8950E-01                      10875014  522
 337.000    338.000    8.0869E+01 6.8950E-01                      10875014  523
 362.000    363.000    7.6633E+01 6.8950E-01                      10875014  524
 387.000    388.000    7.7323E+01 6.8950E-01                      10875014  525
 412.000    413.000    7.8899E+01 6.8950E-01                      10875014  526
 437.000    438.000    7.9982E+01 7.8800E-01                      10875014  527
 462.000    463.000    8.0869E+01 7.8800E-01                      10875014  528
 487.000    488.000    6.8064E+01 6.8950E-01                      10875014  529
 512.000    513.000    6.1464E+01 6.8950E-01                      10875014  530
 537.000    538.000    6.0085E+01 6.8950E-01                      10875014  531
 562.000    563.000    5.7524E+01 6.8950E-01                      10875014  532
 587.000    588.000    5.7524E+01 6.8950E-01                      10875014  533
ENDDATA            523                                            10875014  534
ENDSUBENT          533                                            1087501499999
ENDENTRY             2                                            1087599999999
ENTRY            11399     870505                                 11399000    1
SUBENT        11399001     870505                                 11399001    1
BIB                  9         13                                 11399001    2
INSTITUTE  (1USAORL)                                              11399001    3
REFERENCE  (J,PR,107,504,57)                                      11399001    4
           (P,ORNL-2302,27,57)                                    11399001    5
AUTHOR     (R.L.MACKLIN,N.H.LAZAR,W.S.LYON)                       11399001    6
TITLE      NEUTRON ACTIVATION CROSS SECTIONS WITH SB-BE NEUTRONS. 11399001    7
INC-SOURCE (PHOTO) SB-BE SOURCE                                   11399001    8
METHOD     (ACTIV)                                                11399001    9
DETECTOR   (NAICR)                                                11399001   10
STATUS     (SCSRS)                                                11399001   11
HISTORY    (760714T) TRANSLATED FROM SCISRS                       11399001   12
           (820324A) CONVERTED TO REACTION FORMALISM              11399001   13
           (860612A) BIB UPDATE.                                  11399001   14
           (870505A) BIB UPDATE.                                  11399001   15
ENDBIB              13                                            11399001   16
NOCOMMON             0          0                                 11399001   17
ENDSUBENT           16                                            1139900199999
SUBENT        11399025     870505                                 11399025    1
BIB                  3          3                                 11399025    2
REACTION   (44-RU-102(N,G)44-RU-103,,SIG)                         11399025    3
DECAY-DATA (44-RU-103,,DG,498.,0.90)                              11399025    4
MONITOR    (53-I-127(N,G)53-I-128,,SIG)                           11399025    5
ENDBIB               3                                            11399025    6
NOCOMMON             0          0                                 11399025    7
DATA                 4          1                                 11399025    8
EN         DATA       DATA-ERR   MONIT                            11399025    9
MEV        B          B          MB                               11399025   10
 2.4    -02 3.86   -01 3.9    -02820.                             11399025   11
ENDDATA              3                                            11399025   12
ENDSUBENT           11                                            1139902599999
ENDENTRY             2                                            1139999999999
ENTRY            11407     840730                                 11407000    1
SUBENT        11407001     840730                                 11407001    1
BIB                  9         11                                 11407001    2
INSTITUTE  (1USAORL)                                              11407001    3
REFERENCE  (J,PR,114,1619,59)                                     11407001    4
AUTHOR     (W.S.LYON,R.L.MACKLIN)                                 11407001    5
TITLE      NEUTRON ACTIVATION AT 195 KEV.                         11407001    6
INC-SOURCE (PHOTO) RD-TH - D2O SOURCE                             11407001    7
DETECTOR   (NAICR)                                                11407001    8
METHOD     (ACTIV)                                                11407001    9
STATUS     (SCSRS)                                                11407001   10
HISTORY    (761016T) TRANSLATED FROM SCISRS                       11407001   11
           (820813A) CONVERTED TO REACTION FORMALISM              11407001   12
           (840730A) BIB CORRECTIONS.                             11407001   13
ENDBIB              11                                            11407001   14
COMMON               2          3                                 11407001   15
EN         EN-RSL                                                 11407001   16
KEV        KEV                                                    11407001   17
 195.       50.                                                   11407001   18
ENDCOMMON            3                                            11407001   19
ENDSUBENT           18                                            1140700199999
SUBENT        11407016     820813                                 11407016    1
BIB                  3          3                                 11407016    2
REACTION   (44-RU-102(N,G)44-RU-103,,SIG)                         11407016    3
DECAY-DATA (44-RU-103,,DG,500.,0.90)                              11407016    4
MONITOR    (49-IN-115(N,G)49-IN-116-M,,SIG)                       11407016    5
ENDBIB               3                                            11407016    6
NOCOMMON             0          0                                 11407016    7
DATA                 3          1                                 11407016    8
DATA       DATA-ERR   MONIT                                       11407016    9
B          B          MB                                          11407016   10
 1.90   -01 2.5    -02 195.                                       11407016   11
ENDDATA              3                                            11407016   12
ENDSUBENT           11                                            1140701699999
ENDENTRY             2                                            1140799999999
ENTRY            11447     850410                                 11447000    1
SUBENT        11447001     850410                                 11447001    1
BIB                  6          8                                 11447001    2
INSTITUTE  (1USAANL)                                              11447001    3
REFERENCE  (J,PR,72,888,4711)                                     11447001    4
AUTHOR     (L.SEREN,H.N.FRIEDLANDER,S.H.TURKEL)                   11447001    5
METHOD     (ACTIV)                                                11447001    6
STATUS     (SCSRS)                                                11447001    7
HISTORY    (760715T) TRANSLATED FROM SCISRS                       11447001    8
           (820813A) CONVERTED TO REACTION FORMALISM              11447001    9
           (840410A) ENERGY CORRECTED.                            11447001   10
ENDBIB               8                                            11447001   11
COMMON               1          3                                 11447001   12
EN-DUMMY                                                          11447001   13
EV                                                                11447001   14
 0.0253                                                           11447001   15
ENDCOMMON            3                                            11447001   16
ENDSUBENT           15                                            1144700199999
SUBENT        11447061     820813                                 11447061    1
BIB                  4          4                                 11447061    2
REACTION   (44-RU-102(N,G)44-RU-103,,SIG,,A/SPA)                  11447061    3
INC-SPECT  REACTOR SPECTRUM                                       11447061    4
METHOD     (ACTIV) ACTIVATION.                                    11447061    5
DECAY-DATA (44-RU-103,40.D,B)                                     11447061    6
ENDBIB               4                                            11447061    7
NOCOMMON             0          0                                 11447061    8
DATA                 2          1                                 11447061    9
DATA       DATA-ERR                                               11447061   10
B          PER-CENT                                               11447061   11
 0.37       20.                                                   11447061   12
ENDDATA              3                                            11447061   13
ENDSUBENT           12                                            1144706199999
ENDENTRY             2                                            1144799999999
ENTRY            11562     830412                                 11562000    1
SUBENT        11562001     830412                                 11562001    1
BIB                  7          8                                 11562001    2
INSTITUTE  (1USABNL)                                              11562001    3
REFERENCE  (J,PR,91,1423,5309)                                    11562001    4
AUTHOR     (D.J.HUGHES,R.C.GARTH,J.S.LEVIN)                       11562001    5
TITLE      FAST NEUTRON CROSS SECTIONS AND NUCLEAR LEVEL DENSITY. 11562001    6
INC-SPECT  U-235 FISSION SPECTRUM                                 11562001    7
STATUS     (SCSRS)                                                11562001    8
HISTORY    (760715T) TRANSLATED FROM SCISRS                       11562001    9
           (830412A) CONVERTED TO REACTION FORMALISM              11562001   10
ENDBIB               8                                            11562001   11
NOCOMMON             0          0                                 11562001   12
ENDSUBENT           11                                            1156200199999
SUBENT        11562006     830412                                 11562006    1
BIB                  2          2                                 11562006    2
REACTION   (44-RU-102(N,G)44-RU-103,,SIG,,FIS)                    11562006    3
MONITOR    (44-RU-102(N,G)44-RU-103,,SIG,,MXW)                    11562006    4
ENDBIB               2                                            11562006    5
NOCOMMON             0          0                                 11562006    6
DATA                 3          1                                 11562006    7
EN-DUMMY   DATA       MONIT                                       11562006    8
MEV        MB         B                                           11562006    9
 1.0        30.        1.2                                        11562006   10
ENDDATA              3                                            11562006   11
ENDSUBENT           10                                            1156200699999
ENDENTRY             2                                            1156299999999
ENTRY            11906     831109                                 11906000    1
SUBENT        11906001     831109                                 11906001    1
BIB                  9         12                                 11906001    2
INSTITUTE  (1USAORL)                                              11906001    3
REFERENCE  (P,ORNL-3832,6,6509)                                   11906001    4
AUTHOR     (P.M.LANTZ)                                            11906001    5
TITLE      THERMAL-NEUTRON CROSS SECTION AND RESONANCE INTEGRAL   11906001    6
            OF RU-102.                                            11906001    7
INC-SPECT  REACTOR SPECTRUM                                       11906001    8
METHOD     (ACTIV) ACTIVATION                                     11906001    9
DECAY-DATA (44-RU-103,40.D,DG,498.,0.90)                          11906001   10
MONITOR    (27-CO-59(N,G)27-CO-60,,SIG)                           11906001   11
           (79-AU-197(N,G)79-AU-198,,SIG)                         11906001   12
HISTORY    (770509C)                                              11906001   13
           (831109A) CONVERTED TO REACTION FORMALISM              11906001   14
ENDBIB              12                                            11906001   15
NOCOMMON             0          0                                 11906001   16
ENDSUBENT           15                                            1190600199999
SUBENT        11906002     831109                                 11906002    1
BIB                  2          3                                 11906002    2
REACTION   (44-RU-102(N,G)44-RU-103,,SIG,,MXW)                    11906002    3
ANALYSIS   AVERAGE OF VALUES CALCULATED FROM 2 MEASUREMENTS IN    11906002    4
            REACTOR SPECTRUM                                      11906002    5
ENDBIB               3                                            11906002    6
NOCOMMON             0          0                                 11906002    7
DATA                 3          1                                 11906002    8
EN-DUMMY   DATA       DATA-ERR                                    11906002    9
EV         B          PER-CENT                                    11906002   10
 0.0253     1.23       10.                                        11906002   11
ENDDATA              3                                            11906002   12
ENDSUBENT           11                                            1190600299999
ENDENTRY             2                                            1190699999999
ENTRY            12613     830808                                 12613000    1
SUBENT        12613001     830808                                 12613001    1
BIB                 13         18                                 12613001    2
INSTITUTE  (1USABNL)                                              12613001    3
REFERENCE  (J,JIN,7,194,58)                                       12613001    4
AUTHOR     (S.KATCOFF,D.WILLIAMS)                                 12613001    5
TITLE      NEUTRON ACTIVATION CROSS-SECTIONS OF RU-96 AND RU-102. 12613001    6
N-SOURCE   (REAC) BROOKHAVEN REACTOR                              12613001    7
INC-SPECT  PILE SPECTRUM                                          12613001    8
CORRECTION CORRECTIONS FOR FAST AND EPITHERMAL NEUTRONS BY MEANS  12613001    9
            OF CADMIUM COVERS.                                    12613001   10
DETECTOR   (PROPC) ARGON-FILLED PROPORTIONAL COUNTER              12613001   11
           (NAICR) SODIUM-IODIDE CRYSTAL WITH                     12613001   12
           (SCIN) SCINTILLATION SPECTROMETER                      12613001   13
METHOD     (COINC) SODIUM-22 CALIBRATED BY MEANS OF BETA-GAMMA    12613001   14
            COINCIDENCE COUNTING                                  12613001   15
MONITOR    (79-AU-197(N,G)79-AU-198,,SIG,,MXW)                    12613001   16
DECAY-DATA (79-AU-198-G,2.70D,DG)                                 12613001   17
ERR-ANALYS ABSOLUTE ERROR APPROXIMATELY 15 PERCENT                12613001   18
HISTORY    (780501C)                                              12613001   19
           (830808A) DECAY-DATA CORRECTED.                        12613001   20
ENDBIB              18                                            12613001   21
COMMON               1          3                                 12613001   22
EN-DUMMY                                                          12613001   23
EV                                                                12613001   24
0.0253                                                            12613001   25
ENDCOMMON            3                                            12613001   26
ENDSUBENT           25                                            1261300199999
SUBENT        12613003     780525                                 12613003    1
BIB                  2          3                                 12613003    2
REACTION   (44-RU-102(N,G)44-RU-103,,SIG,,MXW)                    12613003    3
DECAY-DATA (44-RU-103-G,39.7D,DG,498.,0.90)                       12613003    4
           (45-RH-103-M,57.MIN,XR)                                12613003    5
ENDBIB               3                                            12613003    6
NOCOMMON                                                          12613003    7
DATA                 1          1                                 12613003    8
DATA                                                              12613003    9
B                                                                 12613003   10
1.50                                                              12613003   11
ENDDATA              3                                            12613003   12
ENDSUBENT           11                                            1261300399999
ENDENTRY             2                                            1261399999999
ENTRY            12866     851106                                 12866000    1
SUBENT        12866001     851106                                 12866001    1
BIB                 15         51                                 12866001    2
INSTITUTE  (1USALRL)                                              12866001    3
REFERENCE  (C,78MAYAG,,495,7805)                                  12866001    4
AUTHOR     (R.E.HEFT)                                             12866001    5
TITLE      A CONSISTENT SET OF NUCLEAR-PARAMETER VALUES           12866001    6
           FOR ABSOLUTE INSTRUMENTAL NEUTRON ACTIVATION           12866001    7
           ANALYSIS.                                              12866001    8
FACILITY   (REAC) LAWRENCE LIVERMORE LABORATORY LPTR RESEARCH     12866001    9
                  REACTOR FACILITY.                               12866001   10
METHOD     (ACTIV)                                                12866001   11
           EPITHERMAL-TO-THERMAL FLUX RATIO WAS MEASURED IN       12866001   12
             EACH IRRADIATION BY INCLUDING A URANIUM-SCANDIUM     12866001   13
             STANDARD IN THE IRRADIATION PACKAGE.                 12866001   14
INC-SPECT  REACTOR SPECTRUM. ALL NUCLIDES IRRADIATED IN POSITION  12866001   15
            S-2 WITH A CD RATIO OF 3.8 AND IN EITHER POSITION E-1 12866001   16
            (CD RATIO 2.5) OR POSITION A-4 (CD RATIO 2.0)         12866001   17
            DEPENDING ON WHETHER PRODUCTS WERE LONG OR SHORT-LIVED12866001   18
MONITOR    ELEMENT SCANDIUM WAS USED AS AN INTERNAL FLUX MONITOR  12866001   19
             SCANDIUM VALUES WERE MEASURED BY TAKING MIXTURES OF  12866001   20
                                COBALT-SCANDIUM                   12866001   21
                                GOLD-SCANDIUM                     12866001   22
                                U238-SCANDIUM                     12866001   23
           ((MONIT1)21-SC-45(N,G)21-SC-46,,SIG)                   12866001   24
           ((MONIT2)27-CO-59(N,G)27-CO-60,,SIG)                   12866001   25
           ((MONIT3)79-AU-197(N,G)79-AU-198,,SIG)                 12866001   26
           ((MONIT4)92-U-238(N,G)92-U-239,,SIG)                   12866001   27
           ((MONIT5)21-SC-45(N,G)21-SC-46,,RI)                    12866001   28
           ((MONIT6)27-CO-59(N,G)27-CO-60,,RI)                    12866001   29
           ((MONIT7)79-AU-197(N,G)79-AU-198,,RI)                  12866001   30
           ((MONIT8)92-U-238(N,G)92-U-239,,RI)                    12866001   31
DECAY-MON  (21-SC-46-G,83.9D,DG,1120.5,1.)                        12866001   32
           (27-CO-60-G,1922.D,DG,1332.51,1.)                      12866001   33
           (79-AU-198-G,2.70D,DG,411.79,0.968)                    12866001   34
           (92-U-239,0.01635D,DG,74.67,.593)                      12866001   35
           (93-NP-239,2.353D,DG,106.07,0.252)                     12866001   36
DETECTOR   ALL COUNTING WAS DONE ON GAMMA SPECTRAL ANALYZERS      12866001   37
             TO MEASURE ABSOLUTE PHOTON EMISSION RATES.           12866001   38
ANALYSIS   ALL SPECTRA GENERATED WERE ANALYZED BY COMPUTER        12866001   39
             CODE GAMANAL TO OBTAIN A SET OF ABSOLUTE             12866001   40
             DISINTEGRATION RATES FOR THE NUCLIDES FOUND.         12866001   41
           THE DISINTEGRATION-RATE DATA THUS OBTAINED WERE        12866001   42
             FURTHER ANALYZED BY ANOTHER COMPUTER CODE NADAC      12866001   43
             TO COMPUTE THE EFFECTIVE CROSS SECTION FOR           12866001   44
             EACH ACTIVATION PRODUCT.                             12866001   45
ERR-ANALYS DETAILS NOT GIVEN                                      12866001   46
             FOR SOME ELEMENTS THE ERRORS REFLECT THE EFFECTS OF  12866001   47
             CONCENTRATION ERROR OR EVAPORATION LOSS.             12866001   48
CORRECTION NO CORRECTION FOR THE INTERFERENCE DUE TO (N,P)        12866001   49
             REACTION WAS DONE.                                   12866001   50
           CORRECTION DUE TO U-235 FISSION REACTION IS IMPLIED.   12866001   51
STATUS     (APRVD) R.E.HEFT, 84/12/27.                            12866001   52
HISTORY    (840410C)                                              12866001   53
ENDBIB              51                                            12866001   54
COMMON              10          6                                 12866001   55
MONIT1     MONIT1-ERR MONIT2     MONIT3     MONIT4     MONIT5     12866001   56
MONIT5-ERR MONIT6     MONIT7     MONIT8                           12866001   57
B          B          B          B          B          B          12866001   58
B          B          B          B                                12866001   59
27.7       0.5        37.5       98.8       2.720      12.2       12866001   60
0.6        75.        1550.      280.                             12866001   61
ENDCOMMON            6                                            12866001   62
ENDSUBENT           61                                            1286600199999
SUBENT        12866082     841227                                 12866082    1
BIB                  3          3                                 12866082    2
REACTION   (44-RU-102(N,G)44-RU-103,,SIG,,SPA)                    12866082    3
SAMPLE     NATURAL SAMPLE,ASSUMED 31.61 PERCENT ABUNDANCE.        12866082    4
DECAY-DATA (44-RU-103,3.960E+01D,DG,497.09,0.900)                 12866082    5
ENDBIB               3                                            12866082    6
NOCOMMON             0          0                                 12866082    7
DATA                 3          1                                 12866082    8
EN-DUMMY   DATA       DATA-ERR                                    12866082    9
EV         B          B                                           12866082   10
0.025      1.31       0.03                                        12866082   11
ENDDATA              3                                            12866082   12
ENDSUBENT           11                                            1286608299999
ENDENTRY             2                                            1286699999999
ENTRY            20313     840106                                 20313000    1
SUBENT        20313001     840106                                 20313001    1
BIB                 13         21                                 20313001    2
INSTITUTE  (2JPNJAE)                                              20313001    3
REFERENCE  (J,NST,6,587,6910)                                     20313001    4
AUTHOR     (H.ISHIKAWA)                                           20313001    5
TITLE      -DETERMINATION OF ACTIVATION CROSS-SECTION BY GAMMA-   20313001    6
            RAY SPECTROMETRY-                                     20313001    7
INC-SOURCE (REAC )    REACTOR. THERMAL COLUMN.                    20313001    8
INC-SPECT  .2200 METER/SEC, FLUX DENSITY IN A THERMAL COLUMN      20313001    9
            WAS 4*1E+9 NEUTRONS/SEC*CM*CM.                        20313001   10
METHOD     (ACTIV)    ACTIVATION.                                 20313001   11
DETECTOR   (NAICR)    NAI(TL)-SCINTILLATOR, 3 INCHES IN DIAM. X 3 20313001   12
            INCHES.                                               20313001   13
MONITOR    (44-RU-96(N,G)44-RU-97,,SIG)                           20313001   14
            RU-96(N,GAMMA) CROSS-SECTION = 0.21 +- 0.02           20313001   15
            BARNS, BNL-325, 2-ND ED., (1958).                     20313001   16
PART-DET   (DG   )    0.497 AND 0.610 MEV GAMMAS.                 20313001   17
STATUS     .DATA FROM NUCL.SCI.TECHN.6,587.                       20313001   18
HISTORY    (711010C)                                              20313001   19
           (740626E)                                              20313001   20
           (840106U) A.P.T. JAPAN CODE CHANGED TO JPN             20313001   21
           (840106E)                                              20313001   22
ERR-ANALYS .NO INFORMATION.                                       20313001   23
ENDBIB              21                                            20313001   24
NOCOMMON             0          0                                 20313001   25
ENDSUBENT           24                                            2031300199999
SUBENT        20313002     860822                                 20313002    1
BIB                  2          5                                 20313002    2
REACTION   (44-RU-102(N,G)44-RU-103,,SIG,,MXW)                    20313002    3
HISTORY    (711010C)                                              20313002    4
           (740626E)                                              20313002    5
           (860808A)HH                                            20313002    6
           (860822E)                                              20313002    7
ENDBIB               5                                            20313002    8
NOCOMMON             0          0                                 20313002    9
DATA                 3          1                                 20313002   10
EN-DUMMY   DATA       DATA-ERR                                    20313002   11
MEV        B          B                                           20313002   12
 2.5300E-08 1.3700E+00 1.3200E-01                                 20313002   13
ENDDATA              3                                            20313002   14
ENDSUBENT           13                                            2031300299999
ENDENTRY             2                                            2031399999999
ENTRY            30503     800321                                 30503000    1
SUBENT        30503001     800321                                 30503001    1
BIB                 14         19                                 30503001    2
TITLE      CAPTURE CROSS SECTIONS OF INTERMEDIATE NEUTRONS        30503001    3
AUTHOR     (M.SRIRAMACHANDRA MURTY, K.SIDDAPPA, J.RAMA RAO)       30503001    4
INSTITUTE  (3INDAUW)                                              30503001    5
REFERENCE  (J,JPJ,35,8,7307)                                      30503001    6
SAMPLE     METAL POWDERS OR OXIDES WITH PURITY GREATER THAN       30503001    7
           99.9 PERCENT                                           30503001    8
MONITOR    (53-I-127(N,G)53-I-128,,SIG)                           30503001    9
INC-SOURCE (PHOTO) SB-BE PHOTONEUTRON SOURCE (20 CI)              30503001   10
METHOD     (ACTIV)                                                30503001   11
PART-DET   (DG)                                                   30503001   12
DETECTOR   (NAICR)                                                30503001   13
CORRECTION DEGRADATION IN ENERGY OF THE INCIDENT KEV NEUTRONS     30503001   14
           IS CONSIDERED NEGLIGIBLE                               30503001   15
ERR-ANALYS ERRORS GIVEN INCLUDE CONTRIBUTIONS DUE TO              30503001   16
            STATISTICS (1 TO 3 PERCENT),                          30503001   17
            NEUTRON FLUX (7 PERCENT, INCL.STANDARD CROSS SECTION),30503001   18
            DECAY SCHEME (AS GIVEN IN LITERATURE).                30503001   19
STATUS     DATA FROM J.PHYS.SOC.JAPAN,35,8(1973),TABLE 1.         30503001   20
HISTORY    (800317C) OS.                                          30503001   21
ENDBIB              19                                            30503001   22
COMMON               4          3                                 30503001   23
EN         EN-RSL     MONIT      MONIT-ERR                        30503001   24
KEV        KEV        MB         MB                               30503001   25
24.        5.         832.       26.                              30503001   26
ENDCOMMON            3                                            30503001   27
ENDSUBENT           26                                            3050300199999
SUBENT        30503009     840911                                 30503009    1
BIB                  1          1                                 30503009    2
REACTION   (44-RU-102(N,G)44-RU-103,,SIG)                         30503009    3
ENDBIB               1                                            30503009    4
NOCOMMON             0          0                                 30503009    5
DATA                 2          1                                 30503009    6
DATA       DATA-ERR                                               30503009    7
MB         MB                                                     30503009    8
 3.5000E+02 4.2000E+01                                            30503009    9
ENDDATA              3                                            30503009   10
ENDSUBENT            9                                            3050300999999
ENDENTRY             2                                            3050399999999
ENTRY            41001     910815                                 41001000    1
SUBENT        41001001     910815                                 41001001    1
BIB                 13         15                                 41001001    2
TITLE       NEUTRON RADIATION CAPTURE CROSS-SECTIONS FOR NUCLEI   41001001    3
            OF MEDIUM AND LARGE MASSES AT THE NEUTRON ENERGY      41001001    4
            1 MEV                                                 41001001    5
AUTHOR     (YU.N.TROFIMOV)                                        41001001    6
INSTITUTE  (4CCPRI )                                              41001001    7
REFERENCE  (C,87KIEV,3,331,8709) DATA TABLE IS GIVEN              41001001    8
FACILITY   (VDG)  VAN-DE-GRAAFF ACELERATOR                        41001001    9
METHOD     (ACTIV) ACTIVATION                                     41001001   10
DETECTOR   (GELI)  DETECTOR VOLUME IS 38 CM**3                    41001001   11
MONITOR    ((MONIT1),79-AU-197(N,G)79-AU-198,,SIG)                41001001   12
MONITOR    ((MONIT2),49-IN-115(N,G)49-IN-116-M,,SIG)              41001001   13
MONITOR    ((MONIT3),49-IN-115(N,INL)49-IN-115,,SIG)              41001001   14
ERR-ANALYS (DATA-ERR) ERROR IS NOT SPECIFIED                      41001001   15
STATUS      DATA ARE TAKEN FROM THE REFERENCE                     41001001   16
HISTORY    (891031C) COMPILED AT THE CENTRE - CJD                 41001001   17
ENDBIB              15                                            41001001   18
COMMON               6          3                                 41001001   19
MONIT1     MONIT1-ERR MONIT2     MONIT2-ERR MONIT3     MONIT3-ERR 41001001   20
MB         MB         MB         MB         MB         MB         41001001   21
 83.         6.         182.       19.        64.        6.       41001001   22
ENDCOMMON            3                                            41001001   23
ENDSUBENT           22                                            4100100199999
SUBENT        41001010     891031                                 41001010    1
BIB                  1          1                                 41001010    2
REACTION   (44-RU-102(N,G)44-RU-103,,SIG)                         41001010    3
ENDBIB               1                                            41001010    4
NOCOMMON             0          0                                 41001010    5
DATA                 3          1                                 41001010    6
EN         DATA       DATA-ERR                                    41001010    7
MEV        MB         MB                                          41001010    8
  1.         53.        6.                                        41001010    9
ENDDATA              3                                            41001010   10
ENDSUBENT            9                                            4100101099999
ENDENTRY             2                                            4100199999999
ENTRY            41050     910618                                 41050000    1
SUBENT        41050001     910618                                 41050001    1
BIB                 12         15                                 41050001    2
AUTHOR     (YU.N.TROFIMOV)                                        41050001    3
TITLE       RADIATIVE NEUTRON CAPTURE CROSS-SECTIONS FOR RU-102,  41050001    4
            RU-104, CE-140, CE-142 IN THE ENERGY RANGE 0.5 - 2.2  41050001    5
            MEV                                                   41050001    6
INSTITUTE  (4CCPRI )                                              41050001    7
REFERENCE  (J,YK,,(4),36,8912)  DATA ARE GIVEN                    41050001    8
METHOD     (ACTIV) ACTIVATION METHOD                              41050001    9
MONITOR    (79-AU-197(N,G)79-AU-198,,SIG)                         41050001   10
FACILITY   (VDG) KHLOPIN RADIUM INSTITUTE ELECROSTATIC            41050001   11
                 ACCELERATOR                                      41050001   12
DECAY-DATA (79-AU-198,2.695D,DG,411.8,0.9556)                     41050001   13
INC-SOURCE (P-T)                                                  41050001   14
ERR-ANALYS (ERR-T) TOTAL ERROR                                    41050001   15
STATUS      DATA ARE TAKEN FROM THE REFERENCE                     41050001   16
HISTORY    (910618C) + + COMPILED AT THE CENTRE - CJD + +         41050001   17
ENDBIB              15                                            41050001   18
NOCOMMON                                                          41050001   19
ENDSUBENT           18                                            4105000199999
SUBENT        41050002     910618                                 41050002    1
BIB                  3          5                                 41050002    2
REACTION   (44-RU-102(N,G)44-RU-103,,SIG)                         41050002    3
DECAY-DATA (44-RU-103,39.26D,DG,497.0,0.88)                       41050002    4
SAMPLE      METALLIC RUTENIUM, MASS 25 - 50 MILLIGRAM,            41050002    5
            RU-100 CONTENT IS 0.3 PC, RU-101 CONTENT IS 0.5 PC,   41050002    6
            RU-102 CONTENT IS 98.7 PC, RU-104 CONTENT IS 0.5 PC   41050002    7
ENDBIB               5                                            41050002    8
NOCOMMON                                                          41050002    9
DATA                 4          6                                 41050002   10
EN         EN-ERR     DATA       ERR-T                            41050002   11
MEV        MEV        MB         MB                               41050002   12
  0.50       0.13       42.        5.                             41050002   13
  1.00       0.12       49.        6.                             41050002   14
  1.20       0.11       25.        2.                             41050002   15
  1.40       0.10       25.        2.                             41050002   16
  1.60       0.09       24.        2.                             41050002   17
  1.80       0.09       35.        5.                             41050002   18
ENDDATA              8                                            41050002   19
ENDSUBENT           18                                            4105000299999
ENDENTRY             2                                            4105099999999
ENDREQUEST           1                                            Z999999999999
