REQUEST           1001   20010914          3     141549               0  0    0
ENTRY            10552     860610                                 10552000    1
SUBENT        10552001     860610                                 10552001    1
BIB                  9         23                                 10552001    2
INSTITUTE  (1USARPI)                                              10552001    3
REFERENCE  (J,BAP,20,560(AN9),7504)                               10552001    4
           (P,ERDA-NDC-3,255,7605)                                10552001    5
           (P,COO-2479-4,5,75)                                    10552001    6
AUTHOR     (R.W.HOCKENBURY,W.R.KOSTE,R.A.SHAW)                    10552001    7
TITLE      CAPTURE CROSS SECTIONS OF 145-ND, 149-SM, 101-RU,      10552001    8
           102-RU, AND 104-RU.                                    10552001    9
FACILITY   (LINAC) RPI LINEAR ACCELERATOR                         10552001   10
CORRECTION DATA CORRECTED FOR IMPURITIES, SAMPLE CONTAINER, DEAD  10552001   11
           TIME AND BACKGROUND EFFECTS.                           10552001   12
ERR-ANALYS STATISTICAL UNCERTAINTY INCLUDES CONTRIBUTIONS FROM-   10552001   13
            RESONANCE USED TO NORMALIZE CAPTURE DATA              10552001   14
              NET RESONANCE COUNTS (0.3-0.5 PERCENT)              10552001   15
              RELATIVE FLUX NEAR RESONANCE (3 PERCENT)            10552001   16
              NEUTRON WIDTH (3 PERCENT)                           10552001   17
            KEV CAPTURE COUNTS (2-6 PERCENT)                      10552001   18
            KEV RELATIVE FLUX (3 PERCENT)                         10552001   19
STATUS     (APRVD) APPROVED BY R.W.HOCKENBURY 78/10/18.           10552001   20
            DATA RECEIVED ON PUNCHED CARDS, HOCKENBURY, 75/10.    10552001   21
HISTORY    (751022C)                                              10552001   22
           (780105U) BIB UPDATE                                   10552001   23
           (830913A) CONVERTED TO REACTION FORMALISM              10552001   24
           (860610A) BIB UPDATE.)                                 10552001   25
ENDBIB              23                                            10552001   26
NOCOMMON             0          0                                 10552001   27
ENDSUBENT           26                                            1055200199999
SUBENT        10552002     860610                                 10552002    1
BIB                  2          2                                 10552002    2
REACTION   (44-RU-101(N,G)44-RU-102,,SIG)                         10552002    3
MONITOR    NORMALIZED AT 61.8 EV RESONANCE.                       10552002    4
ENDBIB               2                                            10552002    5
NOCOMMON             0          0                                 10552002    6
DATA                 2        434                                 10552002    7
EN         DATA                                                   10552002    8
EV         B                                                      10552002    9
 6.5797E+03 1.5280E+00                                            10552002   10
 6.5977E+03 1.8375E+00                                            10552002   11
 6.6159E+03 2.2496E+00                                            10552002   12
 6.6340E+03 2.6321E+00                                            10552002   13
 6.6523E+03 3.6499E+00                                            10552002   14
 6.6706E+03 3.6213E+00                                            10552002   15
 6.6890E+03 2.6480E+00                                            10552002   16
 6.7075E+03 3.0037E+00                                            10552002   17
 6.7261E+03 3.5994E+00                                            10552002   18
 6.7447E+03 4.0578E+00                                            10552002   19
 6.7634E+03 3.4645E+00                                            10552002   20
 6.7822E+03 3.1462E+00                                            10552002   21
 6.8011E+03 2.9485E+00                                            10552002   22
 6.8200E+03 2.4873E+00                                            10552002   23
 6.8391E+03 2.1741E+00                                            10552002   24
 6.8582E+03 2.8402E+00                                            10552002   25
 6.8774E+03 3.8279E+00                                            10552002   26
 6.8966E+03 3.9851E+00                                            10552002   27
 6.9160E+03 3.4450E+00                                            10552002   28
 6.9354E+03 2.2717E+00                                            10552002   29
 6.9549E+03 1.9379E+00                                            10552002   30
 6.9745E+03 2.4131E+00                                            10552002   31
 6.9942E+03 2.9800E+00                                            10552002   32
 7.0140E+03 3.3502E+00                                            10552002   33
 7.0338E+03 3.4703E+00                                            10552002   34
 7.0537E+03 3.0437E+00                                            10552002   35
 7.0738E+03 2.5114E+00                                            10552002   36
 7.0939E+03 2.8046E+00                                            10552002   37
 7.1140E+03 3.2402E+00                                            10552002   38
 7.1343E+03 3.1272E+00                                            10552002   39
 7.1547E+03 2.1539E+00                                            10552002   40
 7.1751E+03 2.5486E+00                                            10552002   41
 7.1957E+03 2.4320E+00                                            10552002   42
 7.2163E+03 2.5205E+00                                            10552002   43
 7.2370E+03 2.7624E+00                                            10552002   44
 7.2578E+03 2.6770E+00                                            10552002   45
 7.2787E+03 2.7195E+00                                            10552002   46
 7.2997E+03 2.5200E+00                                            10552002   47
 7.3207E+03 2.1058E+00                                            10552002   48
 7.3419E+03 1.8247E+00                                            10552002   49
 7.3632E+03 1.6606E+00                                            10552002   50
 7.3845E+03 1.8363E+00                                            10552002   51
 7.4060E+03 2.5686E+00                                            10552002   52
 7.4275E+03 2.6967E+00                                            10552002   53
 7.4491E+03 1.8885E+00                                            10552002   54
 7.4708E+03 1.9367E+00                                            10552002   55
 7.4927E+03 1.3523E+00                                            10552002   56
 7.5146E+03 1.4843E+00                                            10552002   57
 7.5366E+03 1.5663E+00                                            10552002   58
 7.5587E+03 2.1704E+00                                            10552002   59
 7.5809E+03 2.4041E+00                                            10552002   60
 7.6032E+03 2.9083E+00                                            10552002   61
 7.6256E+03 2.7983E+00                                            10552002   62
 7.6481E+03 2.6847E+00                                            10552002   63
 7.6707E+03 2.3191E+00                                            10552002   64
 7.6934E+03 2.0060E+00                                            10552002   65
 7.7162E+03 2.6790E+00                                            10552002   66
 7.7391E+03 3.3298E+00                                            10552002   67
 7.7621E+03 2.9411E+00                                            10552002   68
 7.7852E+03 2.6268E+00                                            10552002   69
 7.8084E+03 3.2543E+00                                            10552002   70
 7.8317E+03 2.8234E+00                                            10552002   71
 7.8552E+03 1.9453E+00                                            10552002   72
 7.8787E+03 1.5514E+00                                            10552002   73
 7.9023E+03 1.4993E+00                                            10552002   74
 7.9261E+03 1.8103E+00                                            10552002   75
 7.9499E+03 2.2683E+00                                            10552002   76
 7.9739E+03 2.5943E+00                                            10552002   77
 7.9979E+03 2.6318E+00                                            10552002   78
 8.0221E+03 2.3541E+00                                            10552002   79
 8.0464E+03 1.8707E+00                                            10552002   80
 8.0708E+03 2.2343E+00                                            10552002   81
 8.0953E+03 2.7045E+00                                            10552002   82
 8.1199E+03 2.1293E+00                                            10552002   83
 8.1446E+03 2.2807E+00                                            10552002   84
 8.1694E+03 2.6731E+00                                            10552002   85
 8.1944E+03 2.7346E+00                                            10552002   86
 8.2195E+03 2.6704E+00                                            10552002   87
 8.2446E+03 2.5094E+00                                            10552002   88
 8.2699E+03 3.1575E+00                                            10552002   89
 8.2953E+03 3.3934E+00                                            10552002   90
 8.3209E+03 3.0125E+00                                            10552002   91
 8.3465E+03 2.3528E+00                                            10552002   92
 8.3723E+03 2.7045E+00                                            10552002   93
 8.3982E+03 2.7014E+00                                            10552002   94
 8.4242E+03 2.6725E+00                                            10552002   95
 8.4503E+03 2.0825E+00                                            10552002   96
 8.4766E+03 1.9416E+00                                            10552002   97
 8.5029E+03 2.4516E+00                                            10552002   98
 8.5294E+03 2.5384E+00                                            10552002   99
 8.5561E+03 2.3124E+00                                            10552002  100
 8.5828E+03 2.6423E+00                                            10552002  101
 8.6097E+03 2.5767E+00                                            10552002  102
 8.6367E+03 3.1197E+00                                            10552002  103
 8.6638E+03 2.6631E+00                                            10552002  104
 8.6911E+03 2.1388E+00                                            10552002  105
 8.7184E+03 1.7181E+00                                            10552002  106
 8.7459E+03 1.9891E+00                                            10552002  107
 8.7736E+03 2.5442E+00                                            10552002  108
 8.8014E+03 2.3204E+00                                            10552002  109
 8.8293E+03 1.8750E+00                                            10552002  110
 8.8573E+03 2.2139E+00                                            10552002  111
 8.8855E+03 2.4030E+00                                            10552002  112
 8.9138E+03 2.2519E+00                                            10552002  113
 8.9422E+03 1.7376E+00                                            10552002  114
 8.9708E+03 1.9344E+00                                            10552002  115
 8.9995E+03 2.6839E+00                                            10552002  116
 9.0284E+03 2.6127E+00                                            10552002  117
 9.0574E+03 2.8288E+00                                            10552002  118
 9.0865E+03 2.8266E+00                                            10552002  119
 9.1158E+03 2.1550E+00                                            10552002  120
 9.1452E+03 2.4238E+00                                            10552002  121
 9.1747E+03 2.9075E+00                                            10552002  122
 9.2044E+03 2.5471E+00                                            10552002  123
 9.2343E+03 2.3190E+00                                            10552002  124
 9.2643E+03 2.8688E+00                                            10552002  125
 9.2944E+03 2.8520E+00                                            10552002  126
 9.3247E+03 2.9793E+00                                            10552002  127
 9.3551E+03 2.7745E+00                                            10552002  128
 9.3857E+03 2.3185E+00                                            10552002  129
 9.4164E+03 2.0346E+00                                            10552002  130
 9.4473E+03 2.4199E+00                                            10552002  131
 9.4784E+03 2.2612E+00                                            10552002  132
 9.5095E+03 1.8679E+00                                            10552002  133
 9.5409E+03 1.7964E+00                                            10552002  134
 9.5724E+03 2.4245E+00                                            10552002  135
 9.6040E+03 2.1573E+00                                            10552002  136
 9.6359E+03 2.2856E+00                                            10552002  137
 9.6678E+03 2.6541E+00                                            10552002  138
 9.7000E+03 2.3664E+00                                            10552002  139
 9.7322E+03 1.7119E+00                                            10552002  140
 9.7647E+03 2.2796E+00                                            10552002  141
 9.7973E+03 2.0649E+00                                            10552002  142
 9.8301E+03 2.4957E+00                                            10552002  143
 9.8630E+03 2.5658E+00                                            10552002  144
 9.8961E+03 2.2519E+00                                            10552002  145
 9.9294E+03 2.1556E+00                                            10552002  146
 9.9628E+03 1.8382E+00                                            10552002  147
 9.9965E+03 2.3173E+00                                            10552002  148
 1.0030E+04 2.5434E+00                                            10552002  149
 1.0064E+04 2.1633E+00                                            10552002  150
 1.0098E+04 1.9988E+00                                            10552002  151
 1.0133E+04 2.4436E+00                                            10552002  152
 1.0167E+04 2.6922E+00                                            10552002  153
 1.0202E+04 2.5243E+00                                            10552002  154
 1.0237E+04 2.4046E+00                                            10552002  155
 1.0272E+04 3.3519E+00                                            10552002  156
 1.0307E+04 3.8143E+00                                            10552002  157
 1.0342E+04 3.4641E+00                                            10552002  158
 1.0378E+04 2.8398E+00                                            10552002  159
 1.0413E+04 2.2553E+00                                            10552002  160
 1.0449E+04 2.3008E+00                                            10552002  161
 1.0485E+04 2.3138E+00                                            10552002  162
 1.0522E+04 2.5836E+00                                            10552002  163
 1.0558E+04 2.5740E+00                                            10552002  164
 1.0595E+04 2.6007E+00                                            10552002  165
 1.0632E+04 2.1399E+00                                            10552002  166
 1.0669E+04 2.4222E+00                                            10552002  167
 1.0706E+04 2.4763E+00                                            10552002  168
 1.0744E+04 2.4866E+00                                            10552002  169
 1.0781E+04 2.3745E+00                                            10552002  170
 1.0819E+04 2.3683E+00                                            10552002  171
 1.0857E+04 2.1037E+00                                            10552002  172
 1.0895E+04 2.1353E+00                                            10552002  173
 1.0934E+04 2.5395E+00                                            10552002  174
 1.0972E+04 2.6328E+00                                            10552002  175
 1.1011E+04 2.6595E+00                                            10552002  176
 1.1050E+04 2.4352E+00                                            10552002  177
 1.1090E+04 1.9856E+00                                            10552002  178
 1.1129E+04 1.7946E+00                                            10552002  179
 1.1169E+04 1.6477E+00                                            10552002  180
 1.1209E+04 1.4891E+00                                            10552002  181
 1.1249E+04 1.8377E+00                                            10552002  182
 1.1289E+04 2.1598E+00                                            10552002  183
 1.1330E+04 1.9970E+00                                            10552002  184
 1.1370E+04 2.1660E+00                                            10552002  185
 1.1411E+04 2.1572E+00                                            10552002  186
 1.1453E+04 2.3229E+00                                            10552002  187
 1.1494E+04 2.1167E+00                                            10552002  188
 1.1536E+04 2.3276E+00                                            10552002  189
 1.1578E+04 2.3832E+00                                            10552002  190
 1.1620E+04 2.9783E+00                                            10552002  191
 1.1662E+04 2.9144E+00                                            10552002  192
 1.1705E+04 2.2349E+00                                            10552002  193
 1.1747E+04 1.9569E+00                                            10552002  194
 1.1790E+04 1.6767E+00                                            10552002  195
 1.1834E+04 2.1509E+00                                            10552002  196
 1.1877E+04 1.9044E+00                                            10552002  197
 1.1921E+04 1.9042E+00                                            10552002  198
 1.1965E+04 1.5308E+00                                            10552002  199
 1.2009E+04 1.4224E+00                                            10552002  200
 1.2054E+04 1.7966E+00                                            10552002  201
 1.2099E+04 2.0326E+00                                            10552002  202
 1.2144E+04 2.0112E+00                                            10552002  203
 1.2189E+04 1.9685E+00                                            10552002  204
 1.2234E+04 2.6186E+00                                            10552002  205
 1.2280E+04 2.7937E+00                                            10552002  206
 1.2326E+04 2.4387E+00                                            10552002  207
 1.2372E+04 1.8719E+00                                            10552002  208
 1.2419E+04 2.1944E+00                                            10552002  209
 1.2466E+04 2.2315E+00                                            10552002  210
 1.2513E+04 2.0869E+00                                            10552002  211
 1.2560E+04 2.2350E+00                                            10552002  212
 1.2608E+04 2.5852E+00                                            10552002  213
 1.2655E+04 2.0941E+00                                            10552002  214
 1.2704E+04 1.9328E+00                                            10552002  215
 1.2752E+04 2.1641E+00                                            10552002  216
 1.2801E+04 2.1271E+00                                            10552002  217
 1.2850E+04 2.1210E+00                                            10552002  218
 1.2899E+04 1.9773E+00                                            10552002  219
 1.2948E+04 1.9413E+00                                            10552002  220
 1.2998E+04 1.8104E+00                                            10552002  221
 1.3048E+04 1.8738E+00                                            10552002  222
 1.3099E+04 1.7875E+00                                            10552002  223
 1.3149E+04 1.8070E+00                                            10552002  224
 1.3200E+04 1.6208E+00                                            10552002  225
 1.3252E+04 1.4924E+00                                            10552002  226
 1.3303E+04 1.4698E+00                                            10552002  227
 1.3355E+04 1.7185E+00                                            10552002  228
 1.3407E+04 1.9867E+00                                            10552002  229
 1.3460E+04 2.1562E+00                                            10552002  230
 1.3513E+04 2.1566E+00                                            10552002  231
 1.3566E+04 2.1845E+00                                            10552002  232
 1.3619E+04 2.0985E+00                                            10552002  233
 1.3673E+04 1.7609E+00                                            10552002  234
 1.3727E+04 2.0573E+00                                            10552002  235
 1.3781E+04 2.5044E+00                                            10552002  236
 1.3836E+04 2.1715E+00                                            10552002  237
 1.3891E+04 1.8769E+00                                            10552002  238
 1.3947E+04 1.7419E+00                                            10552002  239
 1.4002E+04 1.3643E+00                                            10552002  240
 1.4058E+04 1.5533E+00                                            10552002  241
 1.4115E+04 1.8008E+00                                            10552002  242
 1.4171E+04 2.0807E+00                                            10552002  243
 1.4228E+04 1.8686E+00                                            10552002  244
 1.4286E+04 1.8688E+00                                            10552002  245
 1.4343E+04 1.9641E+00                                            10552002  246
 1.4402E+04 1.7423E+00                                            10552002  247
 1.4460E+04 1.3768E+00                                            10552002  248
 1.4519E+04 1.3454E+00                                            10552002  249
 1.4578E+04 1.7658E+00                                            10552002  250
 1.4638E+04 2.1898E+00                                            10552002  251
 1.4697E+04 1.9607E+00                                            10552002  252
 1.4758E+04 1.9559E+00                                            10552002  253
 1.4818E+04 1.8187E+00                                            10552002  254
 1.4879E+04 1.9853E+00                                            10552002  255
 1.4941E+04 1.8862E+00                                            10552002  256
 1.5002E+04 1.7846E+00                                            10552002  257
 1.5065E+04 1.8151E+00                                            10552002  258
 1.5127E+04 1.7991E+00                                            10552002  259
 1.5190E+04 2.1448E+00                                            10552002  260
 1.5253E+04 1.9485E+00                                            10552002  261
 1.5317E+04 1.8686E+00                                            10552002  262
 1.5381E+04 1.7215E+00                                            10552002  263
 1.5446E+04 1.6076E+00                                            10552002  264
 1.5511E+04 1.8452E+00                                            10552002  265
 1.5576E+04 1.9592E+00                                            10552002  266
 1.5642E+04 1.8955E+00                                            10552002  267
 1.5708E+04 2.0059E+00                                            10552002  268
 1.5774E+04 2.0296E+00                                            10552002  269
 1.5841E+04 1.6796E+00                                            10552002  270
 1.5909E+04 1.5867E+00                                            10552002  271
 1.5977E+04 1.5679E+00                                            10552002  272
 1.6045E+04 1.5112E+00                                            10552002  273
 1.6114E+04 2.0020E+00                                            10552002  274
 1.6183E+04 1.9982E+00                                            10552002  275
 1.6253E+04 2.1333E+00                                            10552002  276
 1.6323E+04 2.4520E+00                                            10552002  277
 1.6393E+04 2.2080E+00                                            10552002  278
 1.6464E+04 2.0918E+00                                            10552002  279
 1.6536E+04 1.9003E+00                                            10552002  280
 1.6608E+04 1.6941E+00                                            10552002  281
 1.6680E+04 1.8818E+00                                            10552002  282
 1.6753E+04 1.8362E+00                                            10552002  283
 1.6826E+04 1.6211E+00                                            10552002  284
 1.6900E+04 1.6250E+00                                            10552002  285
 1.6974E+04 1.6149E+00                                            10552002  286
 1.7049E+04 1.8193E+00                                            10552002  287
 1.7125E+04 1.6368E+00                                            10552002  288
 1.7200E+04 1.7066E+00                                            10552002  289
 1.7277E+04 1.6706E+00                                            10552002  290
 1.7353E+04 1.5391E+00                                            10552002  291
 1.7431E+04 1.8769E+00                                            10552002  292
 1.7509E+04 1.9419E+00                                            10552002  293
 1.7587E+04 2.0357E+00                                            10552002  294
 1.7666E+04 1.6295E+00                                            10552002  295
 1.7745E+04 1.6896E+00                                            10552002  296
 1.7825E+04 1.9713E+00                                            10552002  297
 1.7906E+04 1.8667E+00                                            10552002  298
 1.7987E+04 1.6167E+00                                            10552002  299
 1.8068E+04 1.4540E+00                                            10552002  300
 1.8151E+04 1.7935E+00                                            10552002  301
 1.8233E+04 1.8591E+00                                            10552002  302
 1.8317E+04 1.6262E+00                                            10552002  303
 1.8401E+04 1.4896E+00                                            10552002  304
 1.8485E+04 1.7671E+00                                            10552002  305
 1.8570E+04 1.6990E+00                                            10552002  306
 1.8656E+04 1.4208E+00                                            10552002  307
 1.8742E+04 1.5191E+00                                            10552002  308
 1.8829E+04 1.6253E+00                                            10552002  309
 1.8916E+04 1.6850E+00                                            10552002  310
 1.9004E+04 1.5872E+00                                            10552002  311
 1.9093E+04 1.4987E+00                                            10552002  312
 1.9182E+04 1.6896E+00                                            10552002  313
 1.9272E+04 1.6138E+00                                            10552002  314
 1.9362E+04 1.7340E+00                                            10552002  315
 1.9453E+04 1.9433E+00                                            10552002  316
 1.9545E+04 1.7294E+00                                            10552002  317
 1.9638E+04 1.6541E+00                                            10552002  318
 1.9731E+04 1.6570E+00                                            10552002  319
 1.9825E+04 1.8579E+00                                            10552002  320
 1.9919E+04 1.6238E+00                                            10552002  321
 2.0014E+04 1.7810E+00                                            10552002  322
 2.0110E+04 1.9724E+00                                            10552002  323
 2.0206E+04 1.8276E+00                                            10552002  324
 2.0304E+04 1.5748E+00                                            10552002  325
 2.0402E+04 1.5980E+00                                            10552002  326
 2.0500E+04 1.6287E+00                                            10552002  327
 2.0599E+04 1.8402E+00                                            10552002  328
 2.0700E+04 1.7720E+00                                            10552002  329
 2.0800E+04 1.5738E+00                                            10552002  330
 2.0902E+04 1.5737E+00                                            10552002  331
 2.1004E+04 1.4118E+00                                            10552002  332
 2.1107E+04 1.4508E+00                                            10552002  333
 2.1211E+04 1.7537E+00                                            10552002  334
 2.1315E+04 1.9417E+00                                            10552002  335
 2.1421E+04 1.7691E+00                                            10552002  336
 2.1527E+04 1.5443E+00                                            10552002  337
 2.1634E+04 1.7118E+00                                            10552002  338
 2.1741E+04 1.7834E+00                                            10552002  339
 2.1850E+04 1.7637E+00                                            10552002  340
 2.1959E+04 1.8896E+00                                            10552002  341
 2.2069E+04 2.0934E+00                                            10552002  342
 2.2180E+04 1.8113E+00                                            10552002  343
 2.2292E+04 1.4792E+00                                            10552002  344
 2.2405E+04 1.4128E+00                                            10552002  345
 2.2518E+04 1.7125E+00                                            10552002  346
 2.2633E+04 1.6876E+00                                            10552002  347
 2.2748E+04 1.5718E+00                                            10552002  348
 2.2864E+04 1.5379E+00                                            10552002  349
 2.2981E+04 1.6069E+00                                            10552002  350
 2.3099E+04 1.5572E+00                                            10552002  351
 2.3218E+04 1.7745E+00                                            10552002  352
 2.3337E+04 1.9011E+00                                            10552002  353
 2.3458E+04 1.6486E+00                                            10552002  354
 2.3580E+04 1.5648E+00                                            10552002  355
 2.3702E+04 1.4930E+00                                            10552002  356
 2.3826E+04 1.4516E+00                                            10552002  357
 2.3950E+04 1.4003E+00                                            10552002  358
 2.4076E+04 1.4772E+00                                            10552002  359
 2.4202E+04 1.6729E+00                                            10552002  360
 2.4329E+04 1.5053E+00                                            10552002  361
 2.4458E+04 1.2881E+00                                            10552002  362
 2.4587E+04 1.1994E+00                                            10552002  363
 2.4718E+04 1.3575E+00                                            10552002  364
 2.4849E+04 1.4999E+00                                            10552002  365
 2.4982E+04 1.2264E+00                                            10552002  366
 2.5116E+04 1.2034E+00                                            10552002  367
 2.5250E+04 1.4262E+00                                            10552002  368
 2.5386E+04 1.5679E+00                                            10552002  369
 2.5523E+04 1.6384E+00                                            10552002  370
 2.5661E+04 1.4875E+00                                            10552002  371
 2.5800E+04 1.6158E+00                                            10552002  372
 2.5941E+04 1.6721E+00                                            10552002  373
 2.6082E+04 1.5182E+00                                            10552002  374
 2.6225E+04 1.5108E+00                                            10552002  375
 2.6368E+04 1.5303E+00                                            10552002  376
 2.6513E+04 1.5040E+00                                            10552002  377
 2.6660E+04 1.5538E+00                                            10552002  378
 2.6807E+04 1.5472E+00                                            10552002  379
 2.6956E+04 1.5210E+00                                            10552002  380
 2.7105E+04 1.5601E+00                                            10552002  381
 2.7256E+04 1.5287E+00                                            10552002  382
 2.7409E+04 1.4277E+00                                            10552002  383
 2.7562E+04 1.5901E+00                                            10552002  384
 2.7717E+04 1.4852E+00                                            10552002  385
 2.7874E+04 1.4124E+00                                            10552002  386
 2.8031E+04 1.3943E+00                                            10552002  387
 2.8190E+04 1.4059E+00                                            10552002  388
 2.8350E+04 1.2993E+00                                            10552002  389
 2.8512E+04 1.1795E+00                                            10552002  390
 2.8675E+04 1.2665E+00                                            10552002  391
 2.8839E+04 1.3708E+00                                            10552002  392
 2.9005E+04 1.3375E+00                                            10552002  393
 2.9172E+04 1.2601E+00                                            10552002  394
 2.9341E+04 1.1697E+00                                            10552002  395
 2.9511E+04 1.3059E+00                                            10552002  396
 4.8880E+04 1.0806E+00                                            10552002  397
 4.9247E+04 1.0177E+00                                            10552002  398
 4.9617E+04 1.0164E+00                                            10552002  399
 4.9992E+04 9.7062E-01                                            10552002  400
 5.0371E+04 9.7540E-01                                            10552002  401
 5.0754E+04 1.0239E+00                                            10552002  402
 5.1142E+04 1.0086E+00                                            10552002  403
 5.1534E+04 9.9982E-01                                            10552002  404
 5.1931E+04 1.0425E+00                                            10552002  405
 5.2332E+04 9.5388E-01                                            10552002  406
 5.2738E+04 9.0985E-01                                            10552002  407
 5.3149E+04 9.2658E-01                                            10552002  408
 5.3564E+04 9.7485E-01                                            10552002  409
 5.3985E+04 1.0147E+00                                            10552002  410
 5.4410E+04 9.0346E-01                                            10552002  411
 5.4840E+04 9.2655E-01                                            10552002  412
 5.5276E+04 9.4875E-01                                            10552002  413
 5.5717E+04 9.8162E-01                                            10552002  414
 5.6163E+04 9.2583E-01                                            10552002  415
 5.6614E+04 8.9441E-01                                            10552002  416
 5.7071E+04 8.6851E-01                                            10552002  417
 5.7534E+04 8.8669E-01                                            10552002  418
 5.8002E+04 9.9617E-01                                            10552002  419
 5.8476E+04 9.5207E-01                                            10552002  420
 5.8955E+04 9.9289E-01                                            10552002  421
 5.9441E+04 9.2986E-01                                            10552002  422
 5.9933E+04 9.6665E-01                                            10552002  423
 6.0430E+04 9.1196E-01                                            10552002  424
 6.0934E+04 9.3871E-01                                            10552002  425
 6.1445E+04 9.3161E-01                                            10552002  426
 6.1961E+04 8.5078E-01                                            10552002  427
 6.2485E+04 8.3691E-01                                            10552002  428
 6.3015E+04 8.5471E-01                                            10552002  429
 6.3551E+04 8.9031E-01                                            10552002  430
 6.4095E+04 8.6616E-01                                            10552002  431
 6.4646E+04 7.9141E-01                                            10552002  432
 6.5203E+04 8.1246E-01                                            10552002  433
 6.5768E+04 7.8913E-01                                            10552002  434
 6.6341E+04 7.7966E-01                                            10552002  435
 6.6920E+04 8.2106E-01                                            10552002  436
 6.7508E+04 7.7669E-01                                            10552002  437
 6.8103E+04 8.6100E-01                                            10552002  438
 6.8706E+04 7.8684E-01                                            10552002  439
 6.9318E+04 8.0641E-01                                            10552002  440
 6.9937E+04 7.6101E-01                                            10552002  441
 7.0565E+04 7.4280E-01                                            10552002  442
 7.1201E+04 7.8974E-01                                            10552002  443
ENDDATA            436                                            10552002  444
ENDSUBENT          443                                            1055200299999
ENDENTRY             2                                            1055299999999
ENTRY            10875     860923                                 10875000    1
SUBENT        10875001     860923                                 10875001    1
BIB                 12         26                                 10875001    2
INSTITUTE  (1USAORL)                                              10875001    3
REFERENCE  (J,NSE,73,174,8002)                                    10875001    4
AUTHOR     (R.L.MACKLIN,J.HALPERIN)                               10875001    5
TITLE      RU-100,101,102,104(N,GAMMA) AND RH-103(N,GAMMA) CROSS  10875001    6
            SECTIONS ABOVE 2.6-KEV                                10875001    7
FACILITY   (LINAC) OAK RIDGE ELECTRON LINEAR ACCELERATOR          10875001    8
METHOD     (TOF) TIME OF FLIGHT WITH 40.12-METER FLIGHT PATH.     10875001    9
            BORON-10 FILTER USED TO ELIMINATE SLOW NEUTRON OVER-  10875001   10
            LAP.                                                  10875001   11
DETECTOR   (SCIN) TWO NON-HYDROGENOUS LIQUID SCINTILLATOR FOR     10875001   12
            DETECTION OF PROMPT GAMMAS. LI-6 GLASS SCINTILLATOR   10875001   13
            AS FLUX MONITOR.                                      10875001   14
MONITOR    (92-U-235(N,F),,SIG) FROM ENDF/B-V USED TO DETERMINE   10875001   15
            MONITOR EFFICIENCY                                    10875001   16
           SATURATED RESONANCE OF GOLD USED TO DETERMINE ABSOLUTE 10875001   17
            EFFICIENCY RATIO OF GAMMA AND FLUX DETECTORS.         10875001   18
CORRECTION CORRECTED FOR DEADTIME, GAMMA ENERGY LOSS IN SAMPLE    10875001   19
            (4-10 PERCENT), AND BACKGROUND.                       10875001   20
ERR-ANALYS STATISTICAL STANDARD DEVIATION RANGES FROM 0.1-0.2 EV  10875001   21
            FOR WELL DEFINED PEAKS.                               10875001   22
STATUS     DATA TAKEN FROM PRIVATE COMM., MACKLIN, 79/5.          10875001   23
           (APRVD) R.L.MACKLIN, 86/9/23.                          10875001   24
HISTORY    (791002C)                                              10875001   25
           (800310A) BIB CORRECTION                               10875001   26
           (801205A) STATUS COMMENT ADDED.                        10875001   27
           (860813A) BIB UPDATE.                                  10875001   28
ENDBIB              26                                            10875001   29
NOCOMMON             0          0                                 10875001   30
ENDSUBENT           29                                            1087500199999
SUBENT        10875013     860923                                 10875013    1
BIB                  4          5                                 10875013    2
REACTION   (44-RU-101(N,G)44-RU-102,,SIG,,AV)                     10875013    3
CORRECTION CORRECTED BY NNDC BY A FACTOR OF 0.9850 DUE TO ERROR IN10875013    4
            PROCESSING CODE.                                      10875013    5
STATUS     CORRECTED AS PER NUC.SCI.ENG.78,110(1981).             10875013    6
HISTORY    (860813A) REACTION, DATA CORRECTED.                    10875013    7
ENDBIB               5                                            10875013    8
NOCOMMON             0          0                                 10875013    9
DATA                 4        525                                 10875013   10
EN-MIN     EN-MAX     DATA       DATA-ERR                         10875013   11
KEV        KEV        MB         MB                               10875013   12
   2.625      2.875    2.7007E+03 8.2740E+00                      10875013   13
   2.875      3.125    2.1796E+03 8.1755E+00                      10875013   14
   3.125      3.375    2.9044E+03 9.2590E+00                      10875013   15
   3.375      3.625    2.5369E+03 9.3575E+00                      10875013   16
   3.625      3.875    2.8165E+03 9.9485E+00                      10875013   17
   3.875      4.125    2.2072E+03 9.5545E+00                      10875013   18
   4.125      4.375    2.8291E+03 1.0540E+01                      10875013   19
   4.375      4.625    1.6741E+03 9.1605E+00                      10875013   20
   4.625      4.875    1.7723E+03 9.6530E+00                      10875013   21
   4.875      5.125    2.0605E+03 1.0244E+01                      10875013   22
   5.125      5.375    1.9283E+03 1.0342E+01                      10875013   23
   5.375      5.625    2.1256E+03 1.1032E+01                      10875013   24
   5.625      5.875    1.8037E+03 1.0441E+01                      10875013   25
   5.875      6.125    2.0928E+03 1.0835E+01                      10875013   26
   6.125      6.375    1.8060E+03 9.8500E+00                      10875013   27
   6.375      6.625    1.8180E+03 1.0244E+01                      10875013   28
   6.625      6.875    2.1408E+03 1.0835E+01                      10875013   29
   6.875      7.125    2.2573E+03 1.1327E+01                      10875013   30
   7.125      7.375    1.6627E+03 1.0441E+01                      10875013   31
   7.375      7.625    1.4918E+03 1.0047E+01                      10875013   32
   7.625      7.875    1.8229E+03 1.0835E+01                      10875013   33
   7.875      8.125    1.5466E+03 1.0737E+01                      10875013   34
   8.125      8.375    1.9260E+03 1.1525E+01                      10875013   35
   8.375      8.625    1.8087E+03 1.1623E+01                      10875013   36
   8.625      8.875    1.7066E+03 1.1426E+01                      10875013   37
   8.875      9.125    1.6285E+03 1.1229E+01                      10875013   38
   9.125      9.375    2.0478E+03 1.2805E+01                      10875013   39
   9.375      9.625    1.5033E+03 1.1130E+01                      10875013   40
   9.625      9.875    1.6653E+03 1.1820E+01                      10875013   41
   9.875     10.125    1.4005E+03 1.0934E+01                      10875013   42
  10.125     10.375    2.1417E+03 1.3100E+01                      10875013   43
  10.375     10.625    1.6787E+03 1.2017E+01                      10875013   44
  10.625     10.875    1.8013E+03 1.2608E+01                      10875013   45
  10.875     11.125    1.8026E+03 1.2608E+01                      10875013   46
  11.125     11.375    1.2368E+03 1.0737E+01                      10875013   47
  11.375     11.625    1.6202E+03 1.2313E+01                      10875013   48
  11.625     11.875    1.5657E+03 1.1919E+01                      10875013   49
  11.875     12.125    1.2646E+03 1.0835E+01                      10875013   50
  12.125     12.375    1.5485E+03 1.1721E+01                      10875013   51
  12.375     12.625    1.5934E+03 1.2214E+01                      10875013   52
  12.625     12.875    1.5399E+03 1.2115E+01                      10875013   53
  12.875     13.125    1.3606E+03 1.1721E+01                      10875013   54
  13.125     13.375    1.1568E+03 1.0934E+01                      10875013   55
  13.375     13.625    1.5507E+03 1.2608E+01                      10875013   56
  13.625     13.875    1.5450E+03 1.2411E+01                      10875013   57
  13.875     14.125    1.1065E+03 1.0835E+01                      10875013   58
  14.125     14.375    1.5640E+03 1.2608E+01                      10875013   59
  14.375     14.625    1.0385E+03 1.0737E+01                      10875013   60
  14.625     14.875    1.5216E+03 1.2706E+01                      10875013   61
  14.875     15.125    1.2651E+03 1.1820E+01                      10875013   62
  15.125     15.375    1.4662E+03 1.2706E+01                      10875013   63
  15.375     15.625    1.2678E+03 1.1919E+01                      10875013   64
  15.625     15.875    1.4788E+03 1.2903E+01                      10875013   65
  15.875     16.125    1.1116E+03 1.1426E+01                      10875013   66
  16.125     16.375    1.5480E+03 1.3199E+01                      10875013   67
  16.375     16.625    1.3792E+03 1.2608E+01                      10875013   68
  16.625     16.875    1.3580E+03 1.2608E+01                      10875013   69
  16.875     17.125    1.2077E+03 1.2017E+01                      10875013   70
  17.125     17.375    1.1890E+03 1.2017E+01                      10875013   71
  17.375     17.625    1.4337E+03 1.3199E+01                      10875013   72
  17.625     17.875    1.2423E+03 1.2411E+01                      10875013   73
  17.875     18.125    1.2227E+03 1.2411E+01                      10875013   74
  18.125     18.375    1.2687E+03 1.2608E+01                      10875013   75
  18.375     18.625    1.2663E+03 1.2706E+01                      10875013   76
  18.625     18.875    1.0452E+03 1.1426E+01                      10875013   77
  18.875     19.125    1.1636E+03 1.2214E+01                      10875013   78
  19.125     19.375    1.1730E+03 1.2313E+01                      10875013   79
  19.375     19.625    1.2680E+03 1.2805E+01                      10875013   80
  19.625     19.875    1.2726E+03 1.2805E+01                      10875013   81
  19.875     20.125    1.1977E+03 1.2510E+01                      10875013   82
  20.125     20.375    1.2754E+03 1.3002E+01                      10875013   83
  20.375     20.625    1.1736E+03 1.2510E+01                      10875013   84
  20.625     20.875    1.2542E+03 1.3002E+01                      10875013   85
  20.875     21.125    9.8096E+02 1.1426E+01                      10875013   86
  21.125     21.375    1.3004E+03 1.3396E+01                      10875013   87
  21.375     21.625    1.1104E+03 1.2313E+01                      10875013   88
  21.625     21.875    1.2181E+03 1.3100E+01                      10875013   89
  21.875     22.125    1.3666E+03 1.3593E+01                      10875013   90
  22.125     22.375    1.1937E+03 1.3100E+01                      10875013   91
  22.375     22.625    1.1995E+03 1.3100E+01                      10875013   92
  22.625     22.875    1.2015E+03 1.3100E+01                      10875013   93
  22.875     23.125    1.1560E+03 1.3100E+01                      10875013   94
  23.125     23.375    1.2767E+03 1.3691E+01                      10875013   95
  23.375     23.625    1.2189E+03 1.3199E+01                      10875013   96
  23.625     23.875    1.1022E+03 1.2805E+01                      10875013   97
  23.875     24.125    1.0405E+03 1.2411E+01                      10875013   98
  24.125     24.375    1.2615E+03 1.3790E+01                      10875013   99
  24.375     24.625    9.5525E+02 1.2017E+01                      10875013  100
  24.625     24.875    9.6313E+02 1.2115E+01                      10875013  101
  24.875     25.125    9.3644E+02 1.2115E+01                      10875013  102
  25.125     25.375    1.1057E+03 1.3100E+01                      10875013  103
  25.375     25.625    1.0767E+03 1.3002E+01                      10875013  104
  25.625     25.875    1.1240E+03 1.3298E+01                      10875013  105
  25.875     26.125    1.1984E+03 1.3593E+01                      10875013  106
  26.125     26.375    9.2669E+02 1.2115E+01                      10875013  107
  26.375     26.625    1.1113E+03 1.3396E+01                      10875013  108
  26.625     26.875    1.0692E+03 1.3298E+01                      10875013  109
  26.875     27.125    1.0989E+03 1.3495E+01                      10875013  110
  27.125     27.375    1.1978E+03 1.3987E+01                      10875013  111
  27.375     27.625    1.1798E+03 1.3790E+01                      10875013  112
  27.625     27.875    1.2343E+03 1.4184E+01                      10875013  113
  27.875     28.125    9.9347E+02 1.2903E+01                      10875013  114
  28.125     28.375    8.8492E+02 1.2115E+01                      10875013  115
  28.375     28.625    9.2964E+02 1.2706E+01                      10875013  116
  28.625     28.875    9.9180E+02 1.3002E+01                      10875013  117
  28.875     29.125    9.6707E+02 1.2903E+01                      10875013  118
  29.125     29.375    9.6067E+02 1.2805E+01                      10875013  119
  29.375     29.625    9.1969E+02 1.2805E+01                      10875013  120
  29.625     29.875    1.0940E+03 1.3888E+01                      10875013  121
  29.875     30.125    1.1624E+03 1.4086E+01                      10875013  122
  30.125     30.375    1.0951E+03 1.3888E+01                      10875013  123
  30.375     30.625    8.7143E+02 1.2313E+01                      10875013  124
  30.625     30.875    8.5518E+02 1.2411E+01                      10875013  125
  30.875     31.125    9.0689E+02 1.2608E+01                      10875013  126
  31.125     31.375    9.5703E+02 1.3298E+01                      10875013  127
  31.375     31.625    9.6402E+02 1.3100E+01                      10875013  128
  31.625     31.875    9.2905E+02 1.3100E+01                      10875013  129
  31.875     32.125    7.8367E+02 1.1919E+01                      10875013  130
  32.125     32.375    1.0216E+03 1.3495E+01                      10875013  131
  32.375     32.625    9.2748E+02 1.3100E+01                      10875013  132
  32.625     32.875    1.0004E+03 1.3495E+01                      10875013  133
  32.875     33.125    9.4747E+02 1.3396E+01                      10875013  134
  33.125     33.375    9.5171E+02 1.3199E+01                      10875013  135
  33.375     33.625    9.5131E+02 1.3199E+01                      10875013  136
  33.625     33.875    1.1118E+03 1.4480E+01                      10875013  137
  33.875     34.125    9.5062E+02 1.3396E+01                      10875013  138
  34.125     34.375    1.0327E+03 1.4086E+01                      10875013  139
  34.375     34.625    1.0155E+03 1.3987E+01                      10875013  140
  34.625     34.875    8.9852E+02 1.2805E+01                      10875013  141
  34.875     35.125    8.1400E+02 1.2608E+01                      10875013  142
  35.125     35.375    7.3481E+02 1.2115E+01                      10875013  143
  35.375     35.625    9.6126E+02 1.3593E+01                      10875013  144
  35.625     35.875    9.7515E+02 1.3790E+01                      10875013  145
  35.875     36.125    9.1782E+02 1.3100E+01                      10875013  146
  36.125     36.375    9.8155E+02 1.3888E+01                      10875013  147
  36.375     36.625    8.4877E+02 1.3100E+01                      10875013  148
  36.625     36.875    9.0196E+02 1.3298E+01                      10875013  149
  36.875     37.125    9.1753E+02 1.3593E+01                      10875013  150
  37.125     37.375    9.4008E+02 1.3691E+01                      10875013  151
  37.375     37.625    9.2718E+02 1.3691E+01                      10875013  152
  37.625     37.875    7.8357E+02 1.2608E+01                      10875013  153
  37.875     38.125    7.9224E+02 1.2706E+01                      10875013  154
  38.125     38.375    7.7608E+02 1.2608E+01                      10875013  155
  38.375     38.625    8.5360E+02 1.3100E+01                      10875013  156
  38.625     38.875    8.7251E+02 1.3298E+01                      10875013  157
  38.875     39.125    8.6217E+02 1.3495E+01                      10875013  158
  39.125     39.375    9.9751E+02 1.4184E+01                      10875013  159
  39.375     39.625    7.9509E+02 1.2706E+01                      10875013  160
  39.625     39.875    9.0955E+02 1.3495E+01                      10875013  161
  39.875     40.125    9.2137E+02 1.3593E+01                      10875013  162
  40.125     40.375    9.8569E+02 1.4480E+01                      10875013  163
  40.375     40.625    7.2762E+02 1.2411E+01                      10875013  164
  40.625     40.875    9.3427E+02 1.3888E+01                      10875013  165
  40.875     41.125    8.1420E+02 1.3298E+01                      10875013  166
  41.125     41.375    8.3952E+02 1.3199E+01                      10875013  167
  41.375     41.625    7.9824E+02 1.2903E+01                      10875013  168
  41.625     41.875    8.6276E+02 1.3691E+01                      10875013  169
  41.875     42.125    8.2090E+02 1.3199E+01                      10875013  170
  42.125     42.375    9.1211E+02 1.3987E+01                      10875013  171
  42.375     42.625    7.8899E+02 1.3199E+01                      10875013  172
  42.625     42.875    7.5077E+02 1.3002E+01                      10875013  173
  42.875     43.125    8.0012E+02 1.3298E+01                      10875013  174
  43.125     43.375    8.1578E+02 1.3593E+01                      10875013  175
  43.375     43.625    8.3124E+02 1.3593E+01                      10875013  176
  43.625     43.875    7.0191E+02 1.2411E+01                      10875013  177
  43.875     44.125    8.3420E+02 1.3593E+01                      10875013  178
  44.125     44.375    8.2405E+02 1.3593E+01                      10875013  179
  44.375     44.625    8.1361E+02 1.3396E+01                      10875013  180
  44.625     44.875    8.5390E+02 1.3593E+01                      10875013  181
  44.875     45.125    7.4545E+02 1.3002E+01                      10875013  182
  45.125     45.375    7.9736E+02 1.3396E+01                      10875013  183
  45.375     45.625    8.1095E+02 1.3593E+01                      10875013  184
  45.625     45.875    9.4353E+02 1.4578E+01                      10875013  185
  45.875     46.125    7.7628E+02 1.3495E+01                      10875013  186
  46.125     46.375    7.3865E+02 1.3199E+01                      10875013  187
  46.375     46.625    6.7541E+02 1.2510E+01                      10875013  188
  46.625     46.875    6.6438E+02 1.2313E+01                      10875013  189
  46.875     47.125    8.1095E+02 1.3790E+01                      10875013  190
  47.125     47.375    6.9955E+02 1.2608E+01                      10875013  191
  47.375     47.625    6.1848E+02 1.2115E+01                      10875013  192
  47.625     47.875    7.7066E+02 1.3495E+01                      10875013  193
  47.875     48.125    8.0662E+02 1.3495E+01                      10875013  194
  48.125     48.375    7.6643E+02 1.3593E+01                      10875013  195
  48.375     48.625    7.7973E+02 1.3495E+01                      10875013  196
  48.625     48.875    7.9746E+02 1.3691E+01                      10875013  197
  48.875     49.125    7.1866E+02 1.3298E+01                      10875013  198
  49.125     49.375    7.6850E+02 1.3691E+01                      10875013  199
  49.375     49.625    7.3323E+02 1.3199E+01                      10875013  200
  49.625     49.875    7.6968E+02 1.3396E+01                      10875013  201
  49.875     50.125    7.8317E+02 1.3495E+01                      10875013  202
  50.125     50.375    7.4190E+02 1.3396E+01                      10875013  203
  50.375     50.625    7.9017E+02 1.3790E+01                      10875013  204
  50.625     50.875    7.3156E+02 1.3396E+01                      10875013  205
  50.875     51.125    6.8940E+02 1.3199E+01                      10875013  206
  51.125     51.375    6.7965E+02 1.2805E+01                      10875013  207
  51.375     51.625    7.1393E+02 1.3002E+01                      10875013  208
  51.625     51.875    8.0110E+02 1.3987E+01                      10875013  209
  51.875     52.125    7.9352E+02 1.3790E+01                      10875013  210
  52.125     52.375    7.9164E+02 1.4086E+01                      10875013  211
  52.375     52.625    6.6527E+02 1.2903E+01                      10875013  212
  52.625     52.875    7.2023E+02 1.3199E+01                      10875013  213
  52.875     53.125    7.2959E+02 1.3495E+01                      10875013  214
  53.125     53.375    7.4801E+02 1.3888E+01                      10875013  215
  53.375     53.625    7.1935E+02 1.3396E+01                      10875013  216
  53.625     53.875    7.0378E+02 1.3298E+01                      10875013  217
  53.875     54.125    7.1353E+02 1.3396E+01                      10875013  218
  54.125     54.375    6.7207E+02 1.3199E+01                      10875013  219
  54.375     54.625    6.4321E+02 1.2903E+01                      10875013  220
  54.625     54.875    7.6889E+02 1.4086E+01                      10875013  221
  54.875     55.125    7.2900E+02 1.3888E+01                      10875013  222
  55.125     55.375    7.3708E+02 1.3987E+01                      10875013  223
  55.375     55.625    7.4466E+02 1.3987E+01                      10875013  224
  55.625     55.875    6.9561E+02 1.3790E+01                      10875013  225
  55.875     56.125    7.7194E+02 1.4578E+01                      10875013  226
  56.125     56.375    6.8773E+02 1.3691E+01                      10875013  227
  56.375     56.625    6.9236E+02 1.3691E+01                      10875013  228
  56.625     56.875    6.6813E+02 1.3298E+01                      10875013  229
  56.875     57.125    6.3454E+02 1.3002E+01                      10875013  230
  57.125     57.375    6.4695E+02 1.3298E+01                      10875013  231
  57.375     57.625    6.9758E+02 1.3396E+01                      10875013  232
  57.625     57.875    6.7758E+02 1.3593E+01                      10875013  233
  57.875     58.125    7.3629E+02 1.3790E+01                      10875013  234
  58.125     58.375    6.4951E+02 1.2903E+01                      10875013  235
  58.375     58.625    6.6448E+02 1.3199E+01                      10875013  236
  58.625     58.875    6.3286E+02 1.3002E+01                      10875013  237
  58.875     59.125    6.6675E+02 1.3495E+01                      10875013  238
  59.125     59.375    6.7906E+02 1.3593E+01                      10875013  239
  59.375     59.625    7.0260E+02 1.3593E+01                      10875013  240
  59.625     59.875    6.7482E+02 1.3396E+01                      10875013  241
  59.875     60.125    6.7768E+02 1.3495E+01                      10875013  242
  60.125     60.375    6.1553E+02 1.2903E+01                      10875013  243
  60.375     60.625    6.8093E+02 1.3495E+01                      10875013  244
  60.625     60.875    6.6980E+02 1.3396E+01                      10875013  245
  60.875     61.125    6.8014E+02 1.3593E+01                      10875013  246
  61.125     61.375    6.4173E+02 1.3100E+01                      10875013  247
  61.375     61.625    6.3198E+02 1.2903E+01                      10875013  248
  61.625     61.875    7.1304E+02 1.4086E+01                      10875013  249
  61.875     62.125    7.2378E+02 1.4283E+01                      10875013  250
  62.125     62.375    6.4252E+02 1.3199E+01                      10875013  251
  62.375     62.625    6.9196E+02 1.3790E+01                      10875013  252
  62.625     62.875    5.7691E+02 1.2608E+01                      10875013  253
  62.875     63.125    6.4862E+02 1.3396E+01                      10875013  254
  63.125     63.375    6.8783E+02 1.3987E+01                      10875013  255
  63.375     63.625    6.4399E+02 1.3199E+01                      10875013  256
  63.625     63.875    6.7798E+02 1.3790E+01                      10875013  257
  63.875     64.125    6.4567E+02 1.3495E+01                      10875013  258
  64.125     64.375    6.1109E+02 1.3002E+01                      10875013  259
  64.375     64.625    7.2811E+02 1.4578E+01                      10875013  260
  64.625     64.875    5.8873E+02 1.2510E+01                      10875013  261
  64.875     65.125    5.8292E+02 1.2805E+01                      10875013  262
  65.125     65.375    6.5266E+02 1.3987E+01                      10875013  263
  65.375     65.625    5.9888E+02 1.3100E+01                      10875013  264
  65.625     65.875    5.4214E+02 1.2510E+01                      10875013  265
  65.875     66.125    5.8007E+02 1.3100E+01                      10875013  266
  66.125     66.375    6.4153E+02 1.3691E+01                      10875013  267
  66.375     66.625    6.4330E+02 1.3691E+01                      10875013  268
  66.625     66.875    6.0499E+02 1.3100E+01                      10875013  269
  66.875     67.125    5.5495E+02 1.2411E+01                      10875013  270
  67.125     67.375    5.8529E+02 1.3002E+01                      10875013  271
  67.375     67.625    5.9100E+02 1.3396E+01                      10875013  272
  67.625     67.875    6.4695E+02 1.3593E+01                      10875013  273
  67.875     68.125    6.6645E+02 1.3888E+01                      10875013  274
  68.125     68.375    6.0883E+02 1.3396E+01                      10875013  275
  68.375     68.625    5.4106E+02 1.2706E+01                      10875013  276
  68.625     68.875    5.9701E+02 1.3199E+01                      10875013  277
  68.875     69.125    5.8667E+02 1.3002E+01                      10875013  278
  69.125     69.375    6.0518E+02 1.3298E+01                      10875013  279
  69.375     69.625    6.0952E+02 1.3298E+01                      10875013  280
  69.625     69.875    5.8420E+02 1.3002E+01                      10875013  281
  69.875     70.125    5.8164E+02 1.3396E+01                      10875013  282
  70.125     70.375    6.1888E+02 1.3691E+01                      10875013  283
  70.375     70.625    6.3109E+02 1.4086E+01                      10875013  284
  70.625     70.875    6.2055E+02 1.3593E+01                      10875013  285
  70.875     71.125    5.5741E+02 1.2903E+01                      10875013  286
  71.125     71.375    6.1070E+02 1.3396E+01                      10875013  287
  71.375     71.625    5.4411E+02 1.2608E+01                      10875013  288
  71.625     71.875    5.4510E+02 1.2706E+01                      10875013  289
  71.875     72.125    5.7859E+02 1.3199E+01                      10875013  290
  72.125     72.375    5.8548E+02 1.3199E+01                      10875013  291
  72.375     72.625    5.4924E+02 1.2706E+01                      10875013  292
  72.625     72.875    6.0105E+02 1.3691E+01                      10875013  293
  72.875     73.125    5.8795E+02 1.3495E+01                      10875013  294
  73.125     73.375    5.7278E+02 1.3396E+01                      10875013  295
  73.375     73.625    5.3820E+02 1.2805E+01                      10875013  296
  73.625     73.875    5.5406E+02 1.3199E+01                      10875013  297
  73.875     74.125    5.5258E+02 1.3002E+01                      10875013  298
  74.125     74.375    5.8036E+02 1.3495E+01                      10875013  299
  74.375     74.625    6.1710E+02 1.3888E+01                      10875013  300
  74.625     74.875    5.4264E+02 1.3100E+01                      10875013  301
  74.875     75.125    6.1070E+02 1.3987E+01                      10875013  302
  75.125     75.375    5.5800E+02 1.3396E+01                      10875013  303
  75.375     75.625    5.3328E+02 1.3002E+01                      10875013  304
  75.625     75.875    5.7642E+02 1.3495E+01                      10875013  305
  75.875     76.125    5.4313E+02 1.3298E+01                      10875013  306
  76.125     76.375    5.5899E+02 1.3396E+01                      10875013  307
  76.375     76.625    5.7632E+02 1.3495E+01                      10875013  308
  76.625     76.875    5.2786E+02 1.2903E+01                      10875013  309
  76.875     77.125    6.0183E+02 1.4184E+01                      10875013  310
  77.125     77.375    5.7770E+02 1.3396E+01                      10875013  311
  77.375     77.625    5.9573E+02 1.3888E+01                      10875013  312
  77.625     77.875    5.6500E+02 1.3396E+01                      10875013  313
  77.875     78.125    5.9652E+02 1.3691E+01                      10875013  314
  78.125     78.375    5.5761E+02 1.3495E+01                      10875013  315
  78.375     78.625    5.4825E+02 1.3298E+01                      10875013  316
  78.625     78.875    5.7012E+02 1.3790E+01                      10875013  317
  78.875     79.125    5.6874E+02 1.3691E+01                      10875013  318
  79.125     79.375    5.8647E+02 1.3790E+01                      10875013  319
  79.375     79.625    6.0991E+02 1.3888E+01                      10875013  320
  79.625     79.875    5.3919E+02 1.3593E+01                      10875013  321
  79.875     80.125    5.2855E+02 1.3495E+01                      10875013  322
  80.125     80.375    5.5308E+02 1.3593E+01                      10875013  323
  80.375     80.625    5.6687E+02 1.3691E+01                      10875013  324
  80.625     80.875    5.0865E+02 1.2903E+01                      10875013  325
  80.875     81.125    5.3082E+02 1.3495E+01                      10875013  326
  81.125     81.375    5.2038E+02 1.3199E+01                      10875013  327
  81.375     81.625    5.5918E+02 1.3790E+01                      10875013  328
  81.625     81.875    5.2609E+02 1.3100E+01                      10875013  329
  81.875     82.125    5.6963E+02 1.3691E+01                      10875013  330
  82.125     82.375    5.3879E+02 1.3495E+01                      10875013  331
  82.375     82.625    4.9595E+02 1.3100E+01                      10875013  332
  82.625     82.875    5.5199E+02 1.4184E+01                      10875013  333
  82.875     83.125    5.5958E+02 1.4184E+01                      10875013  334
  83.125     83.375    5.8667E+02 1.4480E+01                      10875013  335
  83.375     83.625    5.6785E+02 1.4086E+01                      10875013  336
  83.625     83.875    5.3604E+02 1.3691E+01                      10875013  337
  83.875     84.125    5.3633E+02 1.3691E+01                      10875013  338
  84.125     84.375    5.3692E+02 1.3691E+01                      10875013  339
  84.375     84.625    4.9496E+02 1.3002E+01                      10875013  340
  84.625     84.875    4.7270E+02 1.2805E+01                      10875013  341
  84.875     85.125    5.3820E+02 1.3593E+01                      10875013  342
  85.125     85.375    5.6243E+02 1.4086E+01                      10875013  343
  85.375     85.625    5.5978E+02 1.4283E+01                      10875013  344
  85.625     85.875    5.4067E+02 1.3987E+01                      10875013  345
  85.875     86.125    5.2461E+02 1.3495E+01                      10875013  346
  86.125     86.375    5.5012E+02 1.3790E+01                      10875013  347
  86.375     86.625    5.0146E+02 1.3199E+01                      10875013  348
  86.625     86.875    5.2530E+02 1.3593E+01                      10875013  349
  86.875     87.125    5.5485E+02 1.3593E+01                      10875013  350
  87.125     87.375    5.7494E+02 1.4283E+01                      10875013  351
  87.375     87.625    4.6039E+02 1.3002E+01                      10875013  352
  87.625     87.875    5.7071E+02 1.4086E+01                      10875013  353
  87.875     88.125    5.4539E+02 1.3888E+01                      10875013  354
  88.125     88.375    5.3279E+02 1.3888E+01                      10875013  355
  88.375     88.625    4.8521E+02 1.3298E+01                      10875013  356
  88.625     88.875    5.0993E+02 1.3593E+01                      10875013  357
  88.875     89.125    5.3180E+02 1.3790E+01                      10875013  358
  89.125     89.375    5.0659E+02 1.3396E+01                      10875013  359
  89.375     89.625    5.1033E+02 1.3396E+01                      10875013  360
  89.625     89.875    5.3269E+02 1.3790E+01                      10875013  361
  89.875     90.125    4.9043E+02 1.3495E+01                      10875013  362
  90.125     90.375    4.7881E+02 1.3100E+01                      10875013  363
  90.375     90.625    4.8886E+02 1.3298E+01                      10875013  364
  90.625     90.875    5.1673E+02 1.3593E+01                      10875013  365
  90.875     91.125    5.0787E+02 1.3495E+01                      10875013  366
  91.125     91.375    5.0491E+02 1.3691E+01                      10875013  367
  91.375     91.625    5.1722E+02 1.3691E+01                      10875013  368
  91.625     91.875    4.5783E+02 1.2903E+01                      10875013  369
  91.875     92.125    5.1210E+02 1.3888E+01                      10875013  370
  92.125     92.375    5.4786E+02 1.4381E+01                      10875013  371
  92.375     92.625    5.0373E+02 1.3691E+01                      10875013  372
  92.625     92.875    4.8777E+02 1.3495E+01                      10875013  373
  92.875     93.125    5.3574E+02 1.4578E+01                      10875013  374
  93.125     93.375    5.2629E+02 1.4086E+01                      10875013  375
  93.375     93.625    5.0422E+02 1.3495E+01                      10875013  376
  93.625     93.875    5.0974E+02 1.3691E+01                      10875013  377
  93.875     94.125    5.0944E+02 1.3691E+01                      10875013  378
  94.125     94.375    4.7516E+02 1.3396E+01                      10875013  379
  94.375     94.625    5.2648E+02 1.3888E+01                      10875013  380
  94.625     94.875    5.0708E+02 1.3790E+01                      10875013  381
  94.875     95.125    4.5734E+02 1.3100E+01                      10875013  382
  95.125     95.375    5.4382E+02 1.4184E+01                      10875013  383
  95.375     95.625    5.2294E+02 1.3987E+01                      10875013  384
  95.625     95.875    5.5190E+02 1.4381E+01                      10875013  385
  95.875     96.125    5.1841E+02 1.4381E+01                      10875013  386
  96.125     96.375    5.0097E+02 1.4086E+01                      10875013  387
  96.375     96.625    4.5576E+02 1.3100E+01                      10875013  388
  96.625     96.875    4.7782E+02 1.3199E+01                      10875013  389
  96.875     97.125    4.7132E+02 1.3495E+01                      10875013  390
  97.125     97.375    4.9349E+02 1.3593E+01                      10875013  391
  97.375     97.625    5.0245E+02 1.3593E+01                      10875013  392
  97.625     97.875    4.9191E+02 1.3790E+01                      10875013  393
  97.875     98.125    4.9151E+02 1.3987E+01                      10875013  394
  98.125     98.375    4.9713E+02 1.4086E+01                      10875013  395
  98.375     98.625    5.1082E+02 1.3987E+01                      10875013  396
  98.625     98.875    5.0777E+02 1.4184E+01                      10875013  397
  98.875     99.125    4.8511E+02 1.3593E+01                      10875013  398
  99.125     99.375    5.3781E+02 1.4381E+01                      10875013  399
  99.375     99.625    5.0865E+02 1.4086E+01                      10875013  400
  99.625     99.875    4.8038E+02 1.3888E+01                      10875013  401
 100.000    101.000    4.9014E+02 6.9935E+00                      10875013  402
 101.000    102.000    4.9211E+02 6.8950E+00                      10875013  403
 102.000    103.000    4.9201E+02 7.0920E+00                      10875013  404
 103.000    104.000    4.8817E+02 7.0920E+00                      10875013  405
 104.000    105.000    4.6866E+02 6.7965E+00                      10875013  406
 105.000    106.000    4.8846E+02 6.9935E+00                      10875013  407
 106.000    107.000    4.7950E+02 7.0920E+00                      10875013  408
 107.000    108.000    4.9329E+02 7.2890E+00                      10875013  409
 108.000    109.000    4.9211E+02 7.2890E+00                      10875013  410
 109.000    110.000    4.8068E+02 7.0920E+00                      10875013  411
 110.000    111.000    4.5970E+02 7.0920E+00                      10875013  412
 111.000    112.000    4.4768E+02 6.8950E+00                      10875013  413
 112.000    113.000    4.3370E+02 6.8950E+00                      10875013  414
 113.000    114.000    4.5369E+02 6.9935E+00                      10875013  415
 114.000    115.000    4.4867E+02 7.0920E+00                      10875013  416
 115.000    116.000    4.6906E+02 7.1905E+00                      10875013  417
 116.000    117.000    4.6187E+02 7.1905E+00                      10875013  418
 117.000    118.000    4.5005E+02 7.0920E+00                      10875013  419
 118.000    119.000    4.4020E+02 6.9935E+00                      10875013  420
 119.000    120.000    4.6246E+02 7.2890E+00                      10875013  421
 120.000    121.000    4.3350E+02 7.0920E+00                      10875013  422
 121.000    122.000    4.2060E+02 6.8950E+00                      10875013  423
 122.000    123.000    4.4217E+02 7.1905E+00                      10875013  424
 123.000    124.000    4.4995E+02 7.2890E+00                      10875013  425
 124.000    125.000    4.3803E+02 7.2890E+00                      10875013  426
 125.000    126.000    4.3222E+02 7.1905E+00                      10875013  427
 126.000    127.000    4.0552E+02 6.8950E+00                      10875013  428
 127.000    128.000    4.3773E+02 7.1905E+00                      10875013  429
 128.000    129.000    4.3389E+02 7.1905E+00                      10875013  430
 129.000    130.000    4.2365E+02 7.0920E+00                      10875013  431
 130.000    131.000    4.0326E+02 6.9935E+00                      10875013  432
 131.000    132.000    4.4207E+02 7.2890E+00                      10875013  433
 132.000    133.000    4.2345E+02 7.0920E+00                      10875013  434
 133.000    134.000    4.0789E+02 6.9935E+00                      10875013  435
 134.000    135.000    4.0828E+02 7.0920E+00                      10875013  436
 135.000    136.000    4.0385E+02 6.9935E+00                      10875013  437
 136.000    137.000    4.0306E+02 7.0920E+00                      10875013  438
 137.000    138.000    4.2010E+02 7.3875E+00                      10875013  439
 138.000    139.000    4.0996E+02 7.1905E+00                      10875013  440
 139.000    140.000    3.9499E+02 7.0920E+00                      10875013  441
 140.000    141.000    3.8829E+02 7.0920E+00                      10875013  442
 141.000    142.000    4.1587E+02 7.4860E+00                      10875013  443
 142.000    143.000    3.9036E+02 7.1905E+00                      10875013  444
 143.000    144.000    4.0720E+02 7.4860E+00                      10875013  445
 144.000    145.000    3.8976E+02 7.2890E+00                      10875013  446
 145.000    146.000    3.7745E+02 6.9935E+00                      10875013  447
 146.000    147.000    3.8996E+02 7.1905E+00                      10875013  448
 147.000    148.000    3.7745E+02 7.0920E+00                      10875013  449
 148.000    149.000    3.7302E+02 6.9935E+00                      10875013  450
 149.000    150.000    3.9242E+02 7.3875E+00                      10875013  451
 150.000    151.000    3.6415E+02 6.9935E+00                      10875013  452
 151.000    152.000    3.8169E+02 7.2890E+00                      10875013  453
 152.000    153.000    3.7361E+02 7.1905E+00                      10875013  454
 153.000    154.000    3.7450E+02 7.0920E+00                      10875013  455
 154.000    155.000    3.6809E+02 7.1905E+00                      10875013  456
 155.000    156.000    3.7282E+02 7.0920E+00                      10875013  457
 156.000    157.000    3.3500E+02 6.8950E+00                      10875013  458
 157.000    158.000    3.6475E+02 7.0920E+00                      10875013  459
 158.000    159.000    3.7686E+02 7.1905E+00                      10875013  460
 159.000    160.000    3.3894E+02 6.7965E+00                      10875013  461
 160.000    161.000    3.4790E+02 6.9935E+00                      10875013  462
 161.000    162.000    3.6445E+02 7.0920E+00                      10875013  463
 162.000    163.000    3.7410E+02 7.4860E+00                      10875013  464
 163.000    164.000    3.2968E+02 6.8950E+00                      10875013  465
 164.000    165.000    3.5421E+02 7.1905E+00                      10875013  466
 165.000    166.000    3.4692E+02 7.1905E+00                      10875013  467
 166.000    167.000    3.4642E+02 7.0920E+00                      10875013  468
 167.000    168.000    3.4751E+02 7.2890E+00                      10875013  469
 168.000    169.000    3.4061E+02 6.9935E+00                      10875013  470
 169.000    170.000    3.4682E+02 7.1905E+00                      10875013  471
 170.000    171.000    3.6287E+02 7.3875E+00                      10875013  472
 171.000    172.000    3.6218E+02 7.3875E+00                      10875013  473
 172.000    173.000    3.4022E+02 6.9935E+00                      10875013  474
 173.000    174.000    3.3047E+02 7.0920E+00                      10875013  475
 174.000    175.000    3.2564E+02 6.9935E+00                      10875013  476
 175.000    176.000    3.4642E+02 7.2890E+00                      10875013  477
 176.000    177.000    3.4475E+02 7.2890E+00                      10875013  478
 177.000    178.000    3.2091E+02 6.9935E+00                      10875013  479
 178.000    179.000    3.2377E+02 6.9935E+00                      10875013  480
 179.000    180.000    3.1520E+02 6.8950E+00                      10875013  481
 180.000    181.000    3.2663E+02 7.0920E+00                      10875013  482
 181.000    182.000    3.1806E+02 6.9935E+00                      10875013  483
 182.000    183.000    3.0072E+02 6.6980E+00                      10875013  484
 183.000    184.000    3.2318E+02 7.0920E+00                      10875013  485
 184.000    185.000    3.4111E+02 7.2890E+00                      10875013  486
 185.000    186.000    3.1481E+02 6.9935E+00                      10875013  487
 186.000    187.000    3.0121E+02 6.8950E+00                      10875013  488
 187.000    188.000    3.1392E+02 7.1905E+00                      10875013  489
 188.000    189.000    3.2751E+02 7.0920E+00                      10875013  490
 189.000    190.000    3.1500E+02 7.0920E+00                      10875013  491
 190.000    191.000    3.0161E+02 7.0920E+00                      10875013  492
 191.000    192.000    3.0840E+02 7.1905E+00                      10875013  493
 192.000    193.000    3.1559E+02 7.2890E+00                      10875013  494
 193.000    194.000    3.2820E+02 7.4860E+00                      10875013  495
 194.000    195.000    3.3037E+02 7.5845E+00                      10875013  496
 195.000    196.000    3.0328E+02 7.1905E+00                      10875013  497
 196.000    197.000    3.2367E+02 7.4860E+00                      10875013  498
 197.000    198.000    3.1855E+02 7.2890E+00                      10875013  499
 198.000    199.000    3.1687E+02 7.2890E+00                      10875013  500
 199.000    200.000    3.1185E+02 7.4860E+00                      10875013  501
 202.000    203.000    3.0949E+02 3.2505E+00                      10875013  502
 207.000    208.000    2.9599E+02 3.2505E+00                      10875013  503
 212.000    213.000    2.9245E+02 3.2505E+00                      10875013  504
 217.000    218.000    2.9826E+02 3.2505E+00                      10875013  505
 222.000    223.000    2.8585E+02 3.2505E+00                      10875013  506
 227.000    228.000    2.8358E+02 3.2505E+00                      10875013  507
 232.000    233.000    2.8427E+02 3.2505E+00                      10875013  508
 237.000    238.000    2.8279E+02 3.2505E+00                      10875013  509
 242.000    243.000    2.7501E+02 3.2505E+00                      10875013  510
 247.000    248.000    2.7265E+02 3.2505E+00                      10875013  511
 252.000    253.000    2.6723E+02 3.2505E+00                      10875013  512
 257.000    258.000    2.6093E+02 3.2505E+00                      10875013  513
 262.000    263.000    2.6831E+02 3.3490E+00                      10875013  514
 267.000    268.000    2.6103E+02 3.3490E+00                      10875013  515
 272.000    273.000    2.6753E+02 3.3490E+00                      10875013  516
 277.000    278.000    2.6171E+02 3.3490E+00                      10875013  517
 282.000    283.000    2.5787E+02 3.3490E+00                      10875013  518
 287.000    288.000    2.4881E+02 3.2505E+00                      10875013  519
 292.000    293.000    2.5255E+02 3.3490E+00                      10875013  520
 297.000    298.000    2.4349E+02 3.2505E+00                      10875013  521
 312.000    313.000    2.3010E+02 1.4775E+00                      10875013  522
 337.000    338.000    2.0173E+02 1.3790E+00                      10875013  523
 362.000    363.000    1.8094E+02 1.2805E+00                      10875013  524
 387.000    388.000    1.6154E+02 1.2805E+00                      10875013  525
 412.000    413.000    1.5386E+02 1.2805E+00                      10875013  526
 437.000    438.000    1.5159E+02 1.3790E+00                      10875013  527
 462.000    463.000    1.4489E+02 1.3790E+00                      10875013  528
 487.000    488.000    1.3701E+02 1.2805E+00                      10875013  529
 512.000    513.000    1.3061E+02 1.2805E+00                      10875013  530
 537.000    538.000    1.2647E+02 1.3790E+00                      10875013  531
 562.000    563.000    1.1712E+02 1.3790E+00                      10875013  532
 587.000    588.000    1.1150E+02 1.3790E+00                      10875013  533
 612.000    613.000    1.0717E+02 1.4775E+00                      10875013  534
 637.000    638.000    1.0185E+02 1.3790E+00                      10875013  535
 662.000    663.000    9.7614E+01 1.2805E+00                      10875013  536
 687.000    688.000    9.3871E+01 1.2805E+00                      10875013  537
ENDDATA            527                                            10875013  538
ENDSUBENT          537                                            1087501399999
ENDENTRY             2                                            1087599999999
ENTRY            11846     830919                                 11846000    1
SUBENT        11846001     830919                                 11846001    1
BIB                  8          9                                 11846001    2
INSTITUTE  (1USAORL)                                              11846001    3
REFERENCE  (P,ORNL-3832,4,6509)                                   11846001    4
AUTHOR     (J.HALPERIN,C.R.BALDOCK,J.H.OLIVER)                    11846001    5
TITLE      NEUTRON CAPTURE CROSS SECTION OF RU-99,100,101.        11846001    6
INC-SPECT  REACTOR SPECTRUM                                       11846001    7
MONITOR    (27-CO-59(N,G)27-CO-60,,SIG)                           11846001    8
METHOD     (ACTIV) ACTIVATION                                     11846001    9
HISTORY    (770706C)                                              11846001   10
           (830919A) CONVERTED TO REACTION FORMALISM              11846001   11
ENDBIB               9                                            11846001   12
NOCOMMON             0          0                                 11846001   13
ENDSUBENT           12                                            1184600199999
SUBENT        11846009     830919                                 11846009    1
BIB                  1          1                                 11846009    2
REACTION   (44-RU-101(N,G)44-RU-102,,SIG,,MXW)                    11846009    3
ENDBIB               1                                            11846009    4
NOCOMMON             0          0                                 11846009    5
DATA                 3          1                                 11846009    6
EN-DUMMY   DATA       DATA-ERR                                    11846009    7
EV         B          PER-CENT                                    11846009    8
 0.0253     5.48       25.                                        11846009    9
ENDDATA              3                                            11846009   10
ENDSUBENT            9                                            1184600999999
SUBENT        11846010     830919                                 11846010    1
BIB                  2          2                                 11846010    2
REACTION   (44-RU-101(N,G)44-RU-102,,SIG)                         11846010    3
STATUS     (DEP,11846009)                                         11846010    4
ENDBIB               2                                            11846010    5
NOCOMMON             0          0                                 11846010    6
DATA                 3          1                                 11846010    7
EN         DATA       DATA-ERR                                    11846010    8
EV         B          PER-CENT                                    11846010    9
 0.0253     5.23       25.                                        11846010   10
ENDDATA              3                                            11846010   11
ENDSUBENT           10                                            1184601099999
ENDENTRY             3                                            1184699999999
ENTRY            11931     830802                                 11931000    1
SUBENT        11931001     830802                                 11931001    1
BIB                  7          9                                 11931001    2
INSTITUTE  (1USAORL)                                              11931001    3
REFERENCE  (P,ORNL-3679,12,64)                                    11931001    4
AUTHOR     (J.HALPERIN,C.BALDOCK,J.OLIVER)                        11931001    5
TITLE      THE NEUTRON CAPTURE CROSS SECTIONS OF RUTHENIUM        11931001    6
           NUCLIDES, MASS NUMBER 98 THROUGH 101.                  11931001    7
METHOD     (ACTIV)                                                11931001    8
STATUS     (SCSRS)                                                11931001    9
HISTORY    (760802T) TRANSLATED FROM SCISRS                       11931001   10
           (830802A) CONVERTED TO REACTION FORMALISM              11931001   11
ENDBIB               9                                            11931001   12
NOCOMMON             0          0                                 11931001   13
ENDSUBENT           12                                            1193100199999
SUBENT        11931006     830802                                 11931006    1
BIB                  2          2                                 11931006    2
REACTION   (44-RU-101(N,G)44-RU-102,,SIG,,SPA)                    11931006    3
INC-SPECT   REACTOR SPECTRUM                                      11931006    4
ENDBIB               2                                            11931006    5
NOCOMMON             0          0                                 11931006    6
DATA                 3          1                                 11931006    7
EN-DUMMY   DATA       DATA-ERR                                    11931006    8
MEV        B          B                                           11931006    9
 2.53   -08 3.1    +00 9.     -01                                 11931006   10
ENDDATA              3                                            11931006   11
ENDSUBENT           10                                            1193100699999
ENDENTRY             2                                            1193199999999
ENDREQUEST           1                                            Z999999999999
