
               LEAST-SQUARES LINEAR REGRESSION OF LEVEL AND GAMMA ENERGIES
 
        LEVEL ENERGIES
    1.     0.0
    2.    16.43 3                       
    3.   119.65 4                       
    4.   128.81 4                       
    5.   161.52 4                       
    6.   197.94 3                       
    7.   208.46 4                       
    8.   228.86 4                       
    9.   248.94 3                       
   10.   282.57 4                       
   11.   330.05 8                       
   12.   392.53 4                       
   13.   408.16 8                       
   14.   512.96 4                       
   15.   514.73 10                      
   16.   564.34 6                       
   17.   600.76 6                       
   18.   619.64 5                       
   19.   636.04 11                      
   20.   650.34 6                       
   21.   737.75 5                       
   22.   741.32 9                       
   23.   798.9 14                       
   24.   828.8 8                        
   25.   856.8 8                        
   26.   869.8 8                        
   27.   876.8 15                       
   28.   893.9 14                       
   29.   918.8 8                        
   30.   944.8 15                       
   31.   978.8 15                       
   32.  1002.8 15                       
   33.  1021.8 15                       
   34.  1032.8 15                       
   35.  1050.8 15                       
   36.  1059.9 14                       
   37.  1076.9 14                       
   38.  1115.8 15                       
   39.  1129.8 15                       
   40.  1149.8 15                       
   41.  1180.8 8                        
   42.  1186.8 8                        
   43.  1200.8 15                       
   44.  1205.9 14                       
   45.  1216.9 14                       
   46.  1237.9 14                       
   47.  1248.9 14                       
   48.  1262.8 8                        
   49.  1285.9 8                        
   50.  1296.9 8                        
   51.  1323.9 8                        
   52.  1359.9 8                        
   53.  1395.9 15                       
   54.  1427.9 21                       
   55.  1441.9 15                       
   56.  1465.9 8                        
   57.  1472.9 14                       
   58.  1489.0 14                       
   59.  1504.9 15                       
   60.  1515.9 15                       
   61.  1532.9 15                       
   62.  1612.9 15                       
   63.  1629.9 8                        
   64.  1652.9 8                        
   65.  1680.9 8                        
   66.  1713.9 15                       
   67.  1727.9 8                        
   68.  1749.9 15                       
   69.  1758.9 8                        
   70.  1777.0 14                       
   71.  1790.9 15                       
   72.  1801.9 15                       
   73.  1815.9 15                       
   74.  1833.9 15                       
   75.  1841.9 15                       
   76.  1855.9 15                       
   77.  1869.9 15                       
   78.  1881.9 15                       
   79.  1897.9 15                       
   80.  1913.0 21                       
   81.  1917.9 15                       
   82.  1924.9 15                       
   83.  1941.9 8                        
   84.  1976.9 8                        
   85.  2007 1                          
   86.  2018 1                          
   87.  2024 1                          
   88.  2043 1                          
   89.  2056.0 21                       
   90.  2073.0 21                       
   91.  6520.07 20                      
 
   GAMMA ENERGIES
       71GA(N,G), (POL N,-  ENERGY     DE    L1  L2
 -----------------------------------------------------------------------------------------------------------------------------------
             16.43 4             16.43 3     2  1                                                                                   
    (2      79.89 10             79.66 4     7  4                                                                                   
             88.85 7             88.81 4     7  3                                                                                   
            103.23 5            103.22 3     3  2                                                                                   
           109.92 18            109.96 4    12 10                                                                                   
    (1      112.42 4            112.37 3     4  2                                                                                   
    (1      120.99 4            121.04 3    10  5                                                                                   
             128.5 4            128.80 4     4  1                                                                                   
             132.4 3            132.12 8    11  6                                                                                   
            145.09 4            145.09 3     5  2                                                                                   
            153.76 4            153.76 3    10  4                                                                                   
    (2      163.16 9            162.92 4    10  3                                                                                   
    (1      181.57 4            181.51 3     6  2                                                                                   
            184.05 4            184.07 3    12  7                                                                                   
    (1      191.98 4            192.03 3     7  2                                                                                   
            194.62 5            194.59 4    12  6                                                                                   
            197.92 4            197.94 3     6  1                                                                                   
           210.33 19            210.22 8    13  6                                                                                   
           210.33 19            210.40 8    11  3                                                                                   
    (3      212.20 7            212.43 4     8  2                                                                                   
            228.88 7            228.86 4     8  1                                                                                   
           231.02 19            231.00 4    12  5                                                                                   
           246.84 24            246.63 8    13  5                                                                                   
            248.97 4            248.94 3     9  1                                                                                   
            264.06 4            264.02 4    14  9                                                                                   
            266.13 4            266.14 3    10  2                                                                                   
           306.14 16           305.99 11    19 11                                                                                   
           306.14 16           306.27 10    15  7                                                                                   
    (1     313.82 14            313.62 8    11  2                                                                                   
    (1       315.8 3            315.39 6    16  9                                                                                   
             318.1 5            318.19 6    17 10                                                                                   
    (2     351.51 14            351.81 6    17  9                                                                                   
    (1     353.39 13           353.21 10    15  5                                                                                   
           353.39 13           353.47 10    19 10                                                                                   
    (2     355.58 12            355.87 6    16  7                                                                                   
    (1     384.34 16            384.16 5    14  4                                                                                   
    (1      390.72 4            390.79 4    18  8                                                                                   
    (1      393.26 4            393.31 3    14  3                                                                                   
            402.85 6            402.81 5    16  5                                                                                   
            402.85 6            402.82 5    17  6                                                                                   
            408.09 9            408.16 8    13  1                                                                                   
    (1      411.28 5            411.18 4    18  7                                                                                   
            411.28 5            411.27 5    22 11                                                                                   
           439.33 13            439.23 6    17  5                                                                                   
             444.7 4            444.68 6    16  3                                                                                   
           458.68 15            458.75 9    22 10                                                                                   
            488.81 4            488.81 4    21  9                                                                                   
            488.81 4            488.81 4    20  5                                                                                   
    (1       497.8 3           498.30 10    15  2                                                                                   
             532.4 5            532.86 9    22  7                                                                                   
             547.9 3            547.90 5    16  2                                                                                   
    (1     564.54 20            564.33 6    16  1                                                                                   
             579.8 5            579.80 9    22  5                                                                                   
           603.38 19            603.21 4    18  2                                                                                   
             608.8 6            608.94 6    21  4                                                                                   
             617.7 4            618.09 6    21  3                                                                                   
    (1       619.1 5           619.61 10    19  2                                                                                   
    (1       619.1 5            619.64 5    18  1                                                                                   
            799.0 20            798.9 14    23  1                                                                                   
            828.8 11             828.8 8    24  1                                                                                   
            856.8 11             856.8 8    25  1                                                                                   
            869.8 11             869.8 8    26  1                                                                                   
            876.8 21            876.8 15    27  1                                                                                   
            894.0 20            893.9 14    28  1                                                                                   
            918.8 11             918.8 8    29  1                                                                                   
            944.8 21            944.8 15    30  1                                                                                   
            978.8 21            978.8 15    31  1                                                                                   
           1002.8 21           1002.8 15    32  1                                                                                   
           1021.8 21           1021.8 15    33  1                                                                                   
           1032.8 21           1032.8 15    34  1                                                                                   
           1050.8 21           1050.8 15    35  1                                                                                   
           1060.0 20           1059.9 14    36  1                                                                                   
           1077.0 20           1076.9 14    37  1                                                                                   
           1115.8 21           1115.8 15    38  1                                                                                   
           1129.8 21           1129.8 15    39  1                                                                                   
           1149.8 21           1149.8 15    40  1                                                                                   
           1180.8 11            1180.8 8    41  1                                                                                   
           1186.8 11            1186.8 8    42  1                                                                                   
           1200.8 21           1200.8 15    43  1                                                                                   
           1206.0 20           1205.9 14    44  1                                                                                   
           1217.0 20           1216.9 14    45  1                                                                                   
           1238.0 20           1237.9 14    46  1                                                                                   
           1249.0 20           1248.9 14    47  1                                                                                   
           1262.8 11            1262.8 8    48  1                                                                                   
           1285.9 11            1285.9 8    49  1                                                                                   
           1296.9 11            1296.9 8    50  1                                                                                   
           1323.9 11            1323.9 8    51  1                                                                                   
           1359.9 11            1359.9 8    52  1                                                                                   
           1395.9 21           1395.9 15    53  1                                                                                   
              1428 3           1427.9 21    54  1                                                                                   
           1441.9 21           1441.9 15    55  1                                                                                   
           1465.9 11            1465.9 8    56  1                                                                                   
           1473.0 20           1472.9 14    57  1                                                                                   
           1489.0 20           1488.9 14    58  1                                                                                   
           1504.9 21           1504.9 15    59  1                                                                                   
           1515.9 21           1515.9 15    60  1                                                                                   
           1532.9 21           1532.9 15    61  1                                                                                   
           1612.9 21           1612.9 15    62  1                                                                                   
           1629.9 11            1629.9 8    63  1                                                                                   
           1652.9 11            1652.9 8    64  1                                                                                   
           1680.9 11            1680.9 8    65  1                                                                                   
           1713.9 21           1713.9 15    66  1                                                                                   
           1727.9 11            1727.9 8    67  1                                                                                   
           1749.9 21           1749.9 15    68  1                                                                                   
           1758.9 11            1758.9 8    69  1                                                                                   
           1777.0 20           1776.9 14    70  1                                                                                   
           1790.9 21           1790.9 15    71  1                                                                                   
           1801.9 21           1801.9 15    72  1                                                                                   
           1815.9 21           1815.9 15    73  1                                                                                   
           1833.9 21           1833.9 15    74  1                                                                                   
           1841.9 21           1841.9 15    75  1                                                                                   
           1855.9 21           1855.9 15    76  1                                                                                   
           1869.9 21           1869.9 15    77  1                                                                                   
           1881.9 21           1881.9 15    78  1                                                                                   
           1897.9 21           1897.9 15    79  1                                                                                   
              1913 3           1912.9 21    80  1                                                                                   
           1917.9 21           1917.9 15    81  1                                                                                   
           1924.9 21           1924.9 15    82  1                                                                                   
           1941.9 11            1941.9 8    83  1                                                                                   
           1976.9 11            1976.9 8    84  1                                                                                   
           2007.0 10           2007.0 10    85  1                                                                                   
           2018.0 10           2018.0 10    86  1                                                                                   
           2024.0 10           2024.0 10    87  1                                                                                   
           2043.0 10           2043.0 10    88  1                                                                                   
              2056 3           2055.9 21    89  1                                                                                   
              2073 3           2072.9 21    90  1                                                                                   
              4447 3           4446.9 21    91 90                                                                                   
              4464 3           4463.9 21    91 89                                                                                   
           4543.0 10            4543.0 8    91 84                                                                                   
           4578.0 10            4578.0 8    91 83                                                                                   
           4595.0 20           4595.0 15    91 82                                                                                   
           4602.0 20           4602.0 15    91 81                                                                                   
              4607 3           4606.9 21    91 80                                                                                   
           4622.0 20           4622.0 15    91 79                                                                                   
           4638.0 20           4638.0 15    91 78                                                                                   
           4650.0 20           4650.0 15    91 77                                                                                   
           4664.0 20           4664.0 15    91 76                                                                                   
           4678.0 20           4678.0 15    91 75                                                                                   
           4686.0 20           4686.0 15    91 74                                                                                   
           4704.0 20           4704.0 15    91 73                                                                                   
           4718.0 20           4718.0 15    91 72                                                                                   
           4729.0 20           4729.0 15    91 71                                                                                   
           4743.0 20           4742.9 14    91 70                                                                                   
           4761.0 10            4761.0 8    91 69                                                                                   
           4770.0 20           4770.0 15    91 68                                                                                   
           4792.0 10            4792.0 8    91 67                                                                                   
           4806.0 20           4806.0 15    91 66                                                                                   
           4839.0 10            4839.0 8    91 65                                                                                   
           4867.0 10            4867.0 8    91 64                                                                                   
           4890.0 10            4890.0 8    91 63                                                                                   
           4907.0 20           4907.0 15    91 62                                                                                   
           4987.0 20           4987.0 15    91 61                                                                                   
           5004.0 20           5004.0 15    91 60                                                                                   
           5015.0 20           5015.0 15    91 59                                                                                   
           5031.0 20           5030.9 14    91 58                                                                                   
           5047.0 20           5046.9 14    91 57                                                                                   
           5054.0 10            5054.0 8    91 56                                                                                   
           5078.0 20           5078.0 15    91 55                                                                                   
              5092 3           5091.9 21    91 54                                                                                   
           5124.0 20           5124.0 15    91 53                                                                                   
           5160.0 10            5160.0 8    91 52                                                                                   
           5196.0 10            5196.0 8    91 51                                                                                   
           5223.0 10            5223.0 8    91 50                                                                                   
           5234.0 10            5234.0 8    91 49                                                                                   
           5257.0 10            5257.0 8    91 48                                                                                   
           5271.0 20           5270.9 14    91 47                                                                                   
           5282.0 20           5281.9 14    91 46                                                                                   
           5303.0 20           5302.9 14    91 45                                                                                   
           5314.0 20           5313.9 14    91 44                                                                                   
           5319.0 20           5319.0 15    91 43                                                                                   
           5333.0 10            5333.0 8    91 42                                                                                   
           5339.0 10            5339.0 8    91 41                                                                                   
           5370.0 20           5370.0 15    91 40                                                                                   
           5390.0 20           5390.0 15    91 39                                                                                   
           5404.0 20           5404.0 15    91 38                                                                                   
           5443.0 20           5442.9 14    91 37                                                                                   
           5460.0 20           5459.9 14    91 36                                                                                   
           5469.0 20           5469.0 15    91 35                                                                                   
           5487.0 20           5487.0 15    91 34                                                                                   
           5498.0 20           5498.0 15    91 33                                                                                   
           5517.0 20           5517.0 15    91 32                                                                                   
           5541.0 20           5541.0 15    91 31                                                                                   
           5575.0 20           5575.0 15    91 30                                                                                   
           5601.0 10            5601.0 8    91 29                                                                                   
           5626.0 20           5625.9 14    91 28                                                                                   
           5643.0 20           5643.0 15    91 27                                                                                   
           5650.0 10            5650.0 8    91 26                                                                                   
           5663.0 10            5663.0 8    91 25                                                                                   
           5691.0 10            5691.0 8    91 24                                                                                   
           5721.0 20           5720.9 14    91 23                                                                                   
              5780 3          5778.50 22    91 22                                                                                   
           5871.0 20          5869.48 20    91 20                                                                                   
           5883.0 10          5883.77 22    91 19                                                                                   
           5901.0 10          5900.17 20    91 18                                                                                   
           5919.0 10          5919.06 21    91 17                                                                                   
           5956.0 20          5955.47 21    91 16                                                                                   
           6007.0 10          6006.84 20    91 14                                                                                   
    (1     6110.0 10          6111.64 21    91 13                                                                                   
           6128.0 20          6127.26 20    91 12                                                                                   
           6190.0 20          6189.73 21    91 11                                                                                   
           6237.0 20          6237.21 20    91 10                                                                                   
           6271.0 20          6270.84 20    91  9                                                                                   
           6290.0 20          6290.92 20    91  8                                                                                   
           6310.0 20          6311.31 20    91  7                                                                                   
           6322.0 20          6321.84 20    91  6                                                                                   
           6359.0 10          6358.25 20    91  5                                                                                   
           6392.0 20          6390.96 20    91  4                                                                                   
           6401.0 10          6400.11 20    91  3                                                                                   
           6503.0 10          6503.32 20    91  2                                                                                   
           6519.0 10          6519.76 20    91  1                                                                                   
      DATA SET  1. ENERGIES CORRECTED BY    .0000000+-  .0000000 KEV     CHISQ/F =  .6959         F=119
      CHISQ/F =  .6959      (FIT OF  210GAMMAS -  90LEVELS)
