    Gamma-Ray Yields from Thermal Neutrons on Al
 
          Energy(De)        Intensity
   -------------------------------------
          7723.85  3          27.43
          2960.01 10           7.99
          3033.89 10           7.01
            248.9 20           6.84
          4133.32 11           6.42
          3465.08  7           6.16
          4259.54  9           6.00
            252.1 20           5.65
              984  2           5.47
          4733.97  6           5.00
           7693.4  3           4.15
          3591.12  8           4.11
          4690.71 11           3.94
           1622.5  3           3.35
           2240.7 20           3.04
         2821.400 25           2.94
          2282.86 21           2.93
          2590.34 22           2.69
          4902.94 17           2.64
          5134.08  8           2.59
            259.3 20           2.58
          3849.20 10           2.55
          6101.31 10           2.28
           4460.1  3           2.20
         3875.460 24           2.14
          4659.61  7           2.09
          5411.02  8           1.82
           6315.8  3           1.81
          2108.25 17           1.80
              758  2           1.79
           2139.0  3           1.75
            830.4 20           1.72
            597.1 20           1.62
           2272.0  8           1.51
          2577.62  3           1.39
           3303.0  3           1.11
           1408.8  4           1.08
           1590.0  5           1.00
           3650.9  7           0.99
          2625.83  6           0.97
              559  2           0.92
            550.7 20           0.92
         5585.470 19           0.88
          3789.40  6           0.84
           1658.7 20           0.82
           1927.2  3           0.80
           1525.9  5           0.80
           4428.3  5           0.73
             4945  2           0.72
           6710.3  4           0.71
           1983.8  3           0.70
          3560.49 11           0.68
          4764.34 22           0.67
             2298  2           0.64
           4754.8 11           0.60
          4015.63 14           0.60
           6440.4  4           0.59
           6197.9  5           0.57
           3709.1 11           0.51
           3679.7 19           0.51
           4377.7  8           0.48
          2709.51 16           0.48
          2255.75 11           0.47
          3392.21  8           0.45
           6619.0  7           0.44
          5708.77  4           0.43
           2452.0  7           0.43
          3823.84 15           0.41
          5765.10  9           0.39
          5301.88  4           0.39
           3902.0 11           0.39
          3347.13 11           0.39
           3265.6  6           0.37
           4575.5  9           0.36
           4101.7 10           0.35
           2131.0 11           0.35
          5103.69 25           0.34
          4054.84 11           0.31
           4169.1  7           0.29
           3935.5  4           0.29
           5238.2  9           0.27
           4620.1  8           0.26
           2171.9 19           0.25
           2887.4 11           0.23
           2727.9 20           0.23
           5451.9  8           0.22
           2922.3  8           0.22
           6017.3  8           0.21
           3142.8  4           0.21
           3128.6 12           0.21
           2988.4 19           0.21
           3890.4 11           0.20
           6860.9  7           0.19
           2737.8 20           0.19
           4280.0  9           0.18
           2550.3 11           0.18
           7656.7 20           0.17
           6590.0  7           0.17
           3480.6 19           0.17
           7453.9 20           0.16
           5859.1  7           0.16
           5068.8  8           0.16
           2656.9 11           0.16
           2486.4 12           0.16
           6952.9 20           0.15
           5796.2  7           0.15
           5423.4 14           0.15
           2877.7 19           0.15
           7175.2  7           0.14
           2566.5 16           0.14
           6936.4  7           0.13
           4002.8 16           0.13
           3207.4 12           0.13
           2381.0 11           0.13
           2347.2 11           0.13
           4512.0 11           0.12
           4239.7 12           0.12
           4069.3  9           0.12
           2502.9 12           0.12
           6349.1  7           0.11
           5443.3 19           0.11
           5377.0 11           0.11
           4984.4  8           0.11
           2976.3 19           0.11
           6722.7  9           0.10
           4596.1  9           0.10
           3985.7 20           0.10
           2420.1 12           0.10
             6978  2           0.09
           7118.8 20           0.08
           6751.0  8           0.08
           5176.2  9           0.08
           4996.5  9           0.08
           4484.5  7           0.08
           3753.9 11           0.08
           3723.3 19           0.08
           3659.4 12           0.08
           3639.6 11           0.08
           3624.1 16           0.08
           7237.7  8           0.07
           5523.1 11           0.07
           3191.9 19           0.07
           3074.6 19           0.07
           7341.2  8           0.06
           6821.5  8           0.06
           4397.1 14           0.06
           4331.1 19           0.06
           4215.3  9           0.06
           4185.1 11           0.06
           3949.8 16           0.06
           2535.2 16           0.06
           7135.1  8           0.05
           5922.3  8           0.05
           5004.9 11           0.05
           4868.4 11           0.05
           2755.1 12           0.05
           2692.0 12           0.05
           7268.2  9           0.04
           5878.6 11           0.04
           3541.2 19           0.04
           6892.9 11           0.03
           6800.0  9           0.03
           5968.5 19           0.03
           5210.0 19           0.03
           5201.9 19           0.03
           6459.2 11           0.02
           5987.6 19           0.02
           5610.3 11           0.02
           5343.3 19           0.02
           6387.8 19           0.01
           5828.6 19           0.01
           5648.3 19           0.01
   -------------------------------------
