    Gamma-Ray Yields from Thermal Neutrons on Au
 
          Energy(De)        Intensity
   -------------------------------------
           1201.8 20          12.17
            214.9 20           9.88
            261.1 20           5.75
            247.8 20           5.74
           2390.7 20           5.58
           6251.6 20           5.52
            236.2 20           4.22
            381.7 20           4.14
           2458.9 20           3.93
           6318.9 20           3.28
            440.6 20           2.58
           6456.6 20           2.11
            528.9 20           2.10
           2842.8 20           1.97
             1712  2           1.78
            291.6 20           1.75
           2649.8 20           1.68
              597  2           1.66
           5710.1 20           1.65
           6511.9 20           1.55
           5102.4 20           1.50
            869.2 20           1.42
           2593.7 20           1.29
           5982.2 20           1.27
           6275.7 20           1.20
           6148.3 20           1.11
           4799.5 20           1.06
           5523.8 20           1.01
           2596.7 20           0.96
            349.8 20           0.96
           4957.4 20           0.90
            342.9 20           0.86
           4543.4 20           0.85
              456  2           0.78
           5148.2 20           0.74
           5085.7 20           0.74
           4998.1 20           0.74
           2010.6 20           0.74
           5224.1 20           0.70
           4587.7 20           0.70
           2302.1 20           0.70
            612.6 20           0.69
            601.8 20           0.69
           4573.6 20           0.68
            411.4 20           0.64
           6105.6 20           0.59
             5594  2           0.58
           4510.6 20           0.58
             5940  2           0.57
           5279.3 20           0.55
           5077.5 20           0.54
           4904.5 20           0.54
           5493.4 20           0.53
           4851.9 20           0.52
           4733.2 20           0.52
            278.1 20           0.52
             5354  2           0.51
           4899.3 20           0.51
           4886.6 20           0.51
           1245.8 20           0.50
           5723.8 20           0.49
           5140.8 20           0.49
           4865.8 20           0.49
           5307.9 20           0.48
           4369.6 20           0.47
            474.6 20           0.47
           4278.8 20           0.46
            477.7 20           0.46
           4188.2 20           0.44
           5878.9 20           0.43
           4006.5 20           0.40
              418  2           0.40
             5038  2           0.39
           5619.7 20           0.37
           4637.1 20           0.37
           4643.6 20           0.34
            421.9 20           0.34
           5839.4 20           0.33
           4123.8 20           0.32
              371  2           0.32
           5204.9 20           0.31
             6266  2           0.30
           5175.4 20           0.30
           5808.3 20           0.29
           3705.5 20           0.29
            307.5 20           0.29
           5473.2 20           0.24
           5675.9 20           0.23
           5364.6 20           0.23
           5463.5 20           0.22
           4973.5 20           0.22
           5385.9 20           0.21
           2659.6 20           0.21
           5394.2 20           0.19
           3265.1 20           0.19
           4770.3 20           0.18
           6057.8 20           0.17
           5642.9 20           0.17
           5512.8 20           0.17
           4762.9 20           0.17
           4321.6 20           0.16
           4025.8 20           0.16
           6165.1 20           0.15
           4828.8 20           0.15
           4929.9 20           0.13
           4073.6 20           0.13
           4785.7 20           0.12
           4525.9 20           0.12
           4397.6 20           0.12
             4301  2           0.12
           5767.1 20           0.11
           3186.6 20           0.11
           4688.7 20           0.10
           3614.6 20           0.10
           6416.7 20           0.09
           5419.9 20           0.09
           4338.1 20           0.09
           5541.1 20           0.08
           4478.9 20           0.08
           3692.9 20           0.08
           5786.2 20           0.07
           3558.6 20           0.07
           4600.2 20           0.06
   -------------------------------------
