    Gamma-Ray Yields from Thermal Neutrons on Cl
 
          Energy(De)        Intensity
   -------------------------------------
         1950.930  7          21.72
          6110.88  5          20.00
         1164.720 14          19.93
           516.73  6          18.50
           788.40  5          15.00
          1959.13  3          14.62
           7413.8  1          10.42
           786.26  6           9.60
          7790.16 11           8.55
          6619.53 11           8.01
         2863.940 22           6.93
          5715.26  6           5.50
          6627.64 19           4.54
         1600.820  4           4.16
         4979.940  5           4.04
         3061.710 24           3.95
          8578.36 13           2.91
          2675.96  8           2.58
          6977.66  9           2.26
          5517.34  6           1.73
          2.3E3                1.40
          2974.60  8           1.35
           1162.6  3           1.30
         3116.080 10           1.28
         1131.140 23           1.27
          5902.91  6           1.14
           2994.7  3           1.12
          4440.48  5           1.08
          3015.91  4           1.08
        2845.4700 16           1.07
          3981.07  5           1.06
          3821.55 17           1.06
          2311.08  5           0.98
          3428.75  7           0.97
         1327.340  4           0.96
          3561.15 18           0.95
           1675.8 20           0.88
           1896.9 20           0.87
          3332.84  3           0.86
          2075.16  3           0.86
          3825.95  7           0.78
           2106.5 20           0.77
          4054.23  8           0.76
          4729.02  7           0.75
          6086.57 15           0.74
          2492.71 21           0.74
          4082.81  4           0.73
          3001.32 10           0.73
          2623.24 19           0.73
          4616.62  4           0.72
          1840.35 20           0.71
           4944.6  3           0.70
          2467.55 19           0.70
           2470.5  3           0.69
          436.130 13           0.67
          1828.35  7           0.65
            589.9 20           0.65
           2871.1  7           0.61
          3375.00 11           0.60
           2801.8  5           0.59
          1786.32 13           0.59
           2876.9  6           0.57
          2418.11 20           0.57
          5017.95  6           0.55
          3599.49 22           0.55
         2895.810  6           0.55
         2034.360 12           0.55
           1984.5 20           0.55
          5247.09 15           0.53
          4524.98 13           0.53
          1647.97  7           0.53
           2037.9  3           0.52
          1639.79  7           0.51
          5584.94  7           0.50
          2156.01  4           0.50
           936.89 20           0.50
           2489.2 10           0.49
          2537.93 16           0.48
          2288.92 22           0.48
          1936.85 13           0.48
         2092.240 14           0.46
          1170.83  5           0.46
          2021.79  6           0.45
           4548.4  5           0.44
          2003.33  4           0.44
          5733.41 13           0.42
          3588.91 25           0.41
           593.20 14           0.41
           4945.2  5           0.40
           2326.0  4           0.40
          6267.99  5           0.39
          3962.42  9           0.39
           2680.3  3           0.39
          2179.40 19           0.39
          3604.26  5           0.38
           2252.9  5           0.38
           1020.4 20           0.38
          4298.59 22           0.37
          4139.07 20           0.37
           2530.5  4           0.37
          2199.93  8           0.37
          3750.03  6           0.36
          1730.16 20           0.36
           2798.3 11           0.35
          5702.73 23           0.34
          5604.26  7           0.33
           2812.5  9           0.33
          1372.59  5           0.33
          1995.53 12           0.32
           1626.1  3           0.32
           632.74  9           0.32
          4586.96  4           0.31
           2368.6  6           0.31
          1710.06 20           0.31
           3250.1  4           0.30
           3086.7  3           0.30
           2809.7 10           0.30
           2665.5  3           0.30
           2364.3 20           0.30
           6640.8  7           0.29
          3634.45  5           0.29
          3316.42  8           0.29
           2266.2  9           0.29
           292.27 10           0.29
           4206.5  3           0.28
          3566.02 13           0.28
           2647.0  4           0.28
          1788.31 14           0.28
          5204.54 23           0.27
           4990.2  6           0.27
           4414.5  3           0.27
           2381.5  7           0.27
           1857.3  3           0.27
          1684.38 17           0.27
           7475.8 20           0.26
           6422.1  5           0.26
          5956.61 12           0.26
           3069.0  5           0.26
           2391.8  8           0.26
            830.8 20           0.26
           4546.1  7           0.25
           3201.9  3           0.25
           2131.6  3           0.25
          3774.81  7           0.24
           3500.1  3           0.24
           2747.5  7           0.24
          1743.26 20           0.24
           6379.1  4           0.23
           4952.0  5           0.23
           3660.8  5           0.23
           2752.4  4           0.23
           2593.0  9           0.23
           2551.4  6           0.23
           2545.4  4           0.23
           2473.2 13           0.23
           2294.6 18           0.23
          1730.86 20           0.23
           1628.8  4           0.23
           3558.0  3           0.22
           2650.8  6           0.22
           2432.9  4           0.22
           2318.9  6           0.22
            477.9 20           0.22
           4884.1  2           0.21
          4755.52 24           0.21
           4359.8 11           0.21
           3255.1 13           0.21
           2439.9  4           0.21
           2234.7  4           0.21
          1679.76 20           0.21
            305.1 20           0.21
           5150.4  3           0.20
           4829.1  3           0.20
           4813.3  6           0.20
           4061.3  5           0.20
           3581.2 14           0.20
           3291.4  5           0.20
           2511.1  6           0.20
           2497.0 12           0.20
          5778.06 17           0.19
           5078.9  3           0.19
           2709.4 10           0.19
           2607.3 16           0.19
           2564.3 16           0.19
           2525.4 10           0.19
           2520.1  7           0.19
           2239.6  4           0.19
          2110.23 20           0.19
           1846.1  5           0.19
            575.8 20           0.19
              541  2           0.19
           358.29  5           0.19
           7281.7 20           0.18
          6951.28 24           0.18
          3573.45 17           0.18
           3503.8  5           0.18
           3135.3  6           0.18
           3106.4  9           0.18
           2764.6 13           0.18
           2640.1  3           0.18
           2586.7 16           0.18
           2569.2 19           0.18
           2422.2  9           0.18
           2275.3 14           0.18
           5492.4  4           0.17
           4517.6  5           0.17
           4376.7 20           0.17
           3629.1  6           0.17
           2953.2  6           0.17
           2555.9  7           0.17
           2427.4  8           0.17
           2259.4 10           0.17
           2246.2  4           0.17
          2044.14 20           0.17
           6681.6 20           0.16
          6544.44 10           0.16
           5754.7 18           0.16
           4354.5  5           0.16
           4111.6 20           0.16
           2633.4  3           0.16
           6344.2  7           0.15
           5419.9  5           0.15
           4030.0  9           0.15
           3707.4  6           0.15
           3622.7  5           0.15
           3614.1 15           0.15
           3347.9  5           0.15
           2930.3  7           0.15
           2836.8  8           0.15
           2759.2  6           0.15
           2687.7  6           0.15
           2580.9 20           0.15
           2479.9 11           0.15
           2448.5  7           0.15
          1806.36 10           0.15
          1496.43  8           0.15
          6487.23 25           0.14
           6185.3  3           0.14
           4933.1  5           0.14
           4418.3  8           0.14
          3735.59  6           0.14
           3538.7  3           0.14
           3531.7 20           0.14
           3210.6  6           0.14
           3026.1  9           0.14
           2990.3  9           0.14
           2965.5  7           0.14
           2793.1 18           0.14
           2741.7  7           0.14
         2733.090  4           0.14
           2724.0 10           0.14
           2692.8  6           0.14
           2454.5 10           0.14
           2445.6  8           0.14
           1446.0  4           0.14
           863.89  9           0.14
            395.7 20           0.14
           7562.4 20           0.13
           6417.2 15           0.13
          6341.37 18           0.13
           4957.9 13           0.13
           4748.5  5           0.13
         4458.120 25           0.13
           4127.0  6           0.13
           4026.3 11           0.13
           3975.9  6           0.13
           3744.2  4           0.13
           3481.4 20           0.13
           3476.9 20           0.13
           3271.4 11           0.13
           3009.4 11           0.13
           2831.1  9           0.13
           2821.2 12           0.13
           1861.3  4           0.13
           7004.5 20           0.12
           6755.9 20           0.12
           5911.3  9           0.12
           5460.2 20           0.12
           5265.6  8           0.12
           4998.8  6           0.12
           4735.1  7           0.12
           4684.5  7           0.12
           4273.7 20           0.12
           4012.3 20           0.12
           3646.6  5           0.12
           3311.5  7           0.12
           3221.1 11           0.12
           2714.4 14           0.12
           2503.6 10           0.12
           5242.8 11           0.11
           5141.5  8           0.11
          5109.37  6           0.11
           4592.3 13           0.11
           4163.1  6           0.11
           4133.6 10           0.11
          4097.05  7           0.11
           4003.1  8           0.11
           3810.1  6           0.11
           3657.5 11           0.11
           3095.6 10           0.11
           3041.3 12           0.11
           2779.7 13           0.11
          2011.21 15           0.11
          1043.30 15           0.11
           859.48 10           0.11
           6875.6 20           0.10
           6787.3 20           0.10
           6358.1 20           0.10
           6007.9 20           0.10
           5500.3  6           0.10
           5300.5  6           0.10
           4557.1  8           0.10
           4332.1 13           0.10
           4293.8  6           0.10
           3861.0  7           0.10
           3791.9  5           0.10
           3469.4  4           0.10
           3372.7 13           0.10
           3359.5  4           0.10
           3320.1 11           0.10
           2940.7  9           0.10
           703.04  6           0.10
           6289.2 11           0.09
           5634.7 12           0.09
           5480.9  6           0.09
           5259.8 10           0.09
           4761.3  9           0.09
           4446.5 12           0.09
           4040.7  8           0.09
           3996.2  9           0.09
           3916.0  5           0.09
           3833.9  7           0.09
           3756.9  5           0.09
           3677.1  5           0.09
           3512.8  4           0.09
           3077.1 14           0.09
           3048.9 14           0.09
           2699.9 18           0.09
          1605.76 20           0.09
          1035.30  9           0.09
           913.40 11           0.09
           532.77  8           0.09
            468.3  6           0.09
           5599.2 11           0.08
           5561.1  6           0.08
          5472.89 13           0.08
           5331.2  7           0.08
           5124.0  8           0.08
           4818.3 14           0.08
           4792.1  9           0.08
           4597.4 12           0.08
           4424.3 11           0.08
           4306.9  6           0.08
           4087.8 20           0.08
           4077.2 10           0.08
           3842.2 10           0.08
           3669.8  6           0.08
           3640.3  8           0.08
           3488.0  5           0.08
           3195.4 11           0.08
           3158.1  9           0.08
           3152.4  9           0.08
           2736.6 17           0.08
           2655.7  8           0.08
           944.96 18           0.08
           5579.0 11           0.07
           5464.9  8           0.07
           5378.3 12           0.07
           5371.0 12           0.07
             5027  1           0.07
           5007.7 11           0.07
           4906.5  6           0.07
           4780.7  7           0.07
           4770.6  7           0.07
           4532.7  9           0.07
           4509.3  9           0.07
           4490.7 20           0.07
           4403.9  5           0.07
           4320.7  8           0.07
           4284.1  5           0.07
           4263.5  5           0.07
           4104.9  8           0.07
             4092  3           0.07
           3800.3  6           0.07
           3715.0  8           0.07
           3696.6  9           0.07
           3683.6  8           0.07
           3459.4  5           0.07
           3388.5  9           0.07
           3352.4 10           0.07
           3296.0 11           0.07
           3241.4 12           0.07
           3166.1  9           0.07
           3127.0 13           0.07
          2917.58 20           0.07
          1425.58 18           0.07
           890.89 20           0.07
           337.52  7           0.07
           6431.7 18           0.06
           5428.2 12           0.06
           5406.6 10           0.06
           5357.4 11           0.06
           5085.8 11           0.06
           5040.3 11           0.06
           4866.6  6           0.06
           4855.8  5           0.06
           4844.0 13           0.06
           4712.0 10           0.06
           4650.5 10           0.06
           4500.1 19           0.06
           4464.1 17           0.06
           4430.7 11           0.06
           4198.1 12           0.06
           4190.6 11           0.06
           4175.8 13           0.06
           4149.9 11           0.06
           4071.0 14           0.06
           3848.3 10           0.06
           3727.7  7           0.06
           3550.8  3           0.06
           3525.8  6           0.06
           3446.3  9           0.06
           3437.1  4           0.06
             3382  1           0.06
           3281.8  9           0.06
           1870.6  3           0.06
          1462.42 18           0.06
           1356.3  3           0.06
          1234.78 20           0.06
          1066.98 20           0.06
           5447.1 10           0.05
           5346.2 13           0.05
           5316.3 10           0.05
           5289.7 11           0.05
           5054.6 13           0.05
           4835.3 18           0.05
           4721.1 14           0.05
           4675.6 10           0.05
           4633.4 15           0.05
           4625.8 14           0.05
           4604.1 11           0.05
           4582.0 19           0.05
           4472.8 16           0.05
           4394.5  6           0.05
           4228.6 12           0.05
           4169.4 15           0.05
           3868.2 15           0.05
           3784.5 10           0.05
           3340.4 14           0.05
   -------------------------------------
