    Gamma-Ray Yields from Thermal Neutrons on Co
 
          Energy(De)        Intensity
   -------------------------------------
            230.2 20          25.95
            277.4 20          19.94
            556.4 20          13.05
           6876.8 20           8.21
           6705.8 20           7.43
           5659.7 20           7.20
           5975.1 20           6.83
            447.3 20           6.81
           6485.9 20           6.42
             1831  2           6.21
            785.7 20           5.19
           7213.7 20           4.72
            497.2 20           4.43
            254.5 20           4.38
           7490.8 20           2.99
           6984.9 20           2.97
           1516.1 20           2.93
           5181.2 20           2.65
            391.8 20           2.59
              944  2           2.21
           5742.2 20           2.10
            483.8 20           2.06
           1802.1 20           1.98
           4905.4 20           1.86
           5925.1 20           1.84
           7055.6 20           1.81
           4028.4 20           1.66
             3749  2           1.34
           1853.3 20           1.31
           5269.6 20           1.23
            435.4 20           1.22
           5602.3 20           1.17
             1890  2           1.16
           5638.5 20           1.10
           2033.6 20           1.09
           4921.5 20           1.01
            928.2 20           1.01
              477  2           1.01
           4207.9 20           1.00
           5613.6 20           0.99
            717.7 20           0.86
           4607.1 20           0.85
           1818.7 20           0.84
            710.5 20           0.84
           1690.6 20           0.81
            473.5 20           0.81
           4884.3 20           0.80
           3929.4 20           0.80
           3379.4 20           0.80
           1215.6 20           0.78
           3966.3 20           0.75
           1291.5 20           0.75
           6948.1 20           0.73
           6275.2 20           0.68
           6109.7 20           0.62
           4151.8 20           0.62
            460.6 20           0.61
           1294.7 20           0.60
           3899.5 20           0.59
           2204.7 20           0.59
           2279.8 20           0.57
           6039.9 20           0.56
           5002.4 20           0.55
           6282.8 20           0.54
           5509.7 20           0.54
             3217  2           0.53
           3194.4 20           0.52
           5702.9 20           0.51
           2241.4 20           0.50
           2926.6 20           0.49
           4329.1 20           0.46
             2867  2           0.45
           5357.9 20           0.44
           5370.5 20           0.42
              463  2           0.42
           2569.1 20           0.41
           5212.6 20           0.40
           3282.8 20           0.40
           3680.9 20           0.39
           5166.5 20           0.38
           2953.5 20           0.38
           2352.9 20           0.38
           2308.1 20           0.38
           4546.5 20           0.36
           2978.5 20           0.36
            317.8 20           0.36
           5128.1 20           0.35
           4645.8 20           0.35
           3613.9 20           0.35
             3334  2           0.35
           2883.1 20           0.35
           3814.9 20           0.34
           2606.5 20           0.34
           5849.5 20           0.33
           2740.4 20           0.33
             2995  2           0.31
           2370.6 20           0.30
           2726.8 20           0.29
           7433.6 20           0.28
           6148.9 20           0.28
             5069  2           0.27
           2526.5 20           0.27
           5567.2 20           0.26
           3097.7 20           0.26
           4781.4 20           0.25
           4376.8 20           0.25
           3049.6 20           0.25
           3975.7 20           0.24
           3125.8 20           0.24
           4394.4 20           0.23
           5038.7 20           0.22
           3842.9 20           0.21
           4622.9 20           0.20
           4348.8 20           0.20
           4276.1 20           0.20
             3609  2           0.20
           6731.6 20           0.19
           4705.9 20           0.19
           4527.2 20           0.19
           3561.2 20           0.19
           4731.5 20           0.17
           3663.7 20           0.16
           3446.5 20           0.16
           2802.7 20           0.15
           4666.8 20           0.14
           5148.3 20           0.13
           3701.9 20           0.13
           6636.7 20           0.11
             4471  2           0.11
           4128.2 20           0.11
           6537.5 20           0.10
           6757.1 20           0.09
   -------------------------------------
