    Gamma-Ray Yields from Thermal Neutrons on Cu
 
          Energy(De)        Intensity
   -------------------------------------
            278.3 20          32.69
           7914.5 20          30.82
           7636.6 20          15.71
            608.9 20           8.62
           7306.2 20           8.09
            385.2 20           7.58
            203.1 20           7.21
            466.2 20           5.97
            343.9 20           5.46
             6678  2           4.24
           7251.9 20           3.70
           6987.8 20           3.25
            579.8 20           2.91
            648.4 20           2.60
           7176.1 20           2.53
           6599.5 20           2.40
           5417.7 20           2.19
            662.9 20           1.88
           6010.4 20           1.62
           7571.3 20           1.54
           4320.8 20           1.54
           5043.8 20           1.44
           7755.3 20           1.40
           1672.4 20           1.26
            878.1 20           1.24
           6393.4 20           1.18
             5188  2           1.18
           1138.6 20           1.16
           1744.8 20           1.11
            449.4 20           1.11
           5319.4 20           1.09
           1159.6 20           0.98
            768.1 20           0.94
           4502.9 20           0.90
           1853.3 20           0.84
            619.1 20           0.84
            316.2 20           0.82
           6617.5 20           0.77
           4604.9 20           0.77
           2497.6 20           0.76
            961.4 20           0.72
           4658.2 20           0.69
           1834.3 20           0.67
           3920.8 20           0.64
           4477.4 20           0.63
             3591  2           0.60
           5771.6 20           0.59
           3317.2 20           0.58
           5244.9 20           0.54
             4733  2           0.53
           4385.6 20           0.52
           7063.6 20           0.50
           3844.4 20           0.50
             2731  2           0.49
           5258.6 20           0.47
           2136.1 20           0.46
             6063  2           0.44
             5084  2           0.44
           3053.7 20           0.44
           4562.1 20           0.43
           2656.9 20           0.42
            423.2 20           0.42
           6790.3 20           0.40
           5018.4 20           0.40
           2572.2 20           0.40
           2465.5 20           0.39
            494.2 20           0.39
             4781  2           0.37
           4201.5 20           0.37
            394.9 20           0.36
           4902.8 20           0.35
           2699.9 20           0.35
           6471.2 20           0.34
             3435  2           0.34
           5635.2 20           0.33
           2932.4 20           0.33
             5556  2           0.31
           6320.2 20           0.30
           5614.6 20           0.30
           2439.8 20           0.30
           2950.2 20           0.27
           3140.2 20           0.26
           6133.6 20           0.25
           3755.5 20           0.25
           4144.8 20           0.24
           4114.6 20           0.24
           5449.2 20           0.23
           3174.7 20           0.23
             7766  2           0.22
           4285.8 20           0.22
           3279.8 20           0.22
           3777.7 20           0.21
           2859.8 20           0.21
             7037  2           0.20
           6244.1 20           0.20
           2797.7 20           0.20
           3561.2 20           0.18
           7277.6 20           0.17
           6224.6 20           0.17
           3728.7 20           0.17
           3509.8 20           0.17
           5527.7 20           0.16
           6575.6 20           0.15
           6048.8 20           0.15
           5151.9 20           0.15
           4841.8 20           0.15
           4032.8 20           0.15
           3937.4 20           0.15
           3885.5 20           0.15
           4982.8 20           0.14
             4089  2           0.14
           4020.3 20           0.14
           3483.8 20           0.14
           3413.7 20           0.14
           5893.9 20           0.13
           4804.3 20           0.13
           3983.4 20           0.13
           3818.7 20           0.13
           3616.7 20           0.13
           6832.8 20           0.12
           6167.1 20           0.12
           5139.8 20           0.12
           3900.7 20           0.12
           6349.4 20           0.11
           5849.6 20           0.11
           4585.9 20           0.11
           4297.3 20           0.11
           4868.4 20           0.10
           4705.5 20           0.10
             4690  2           0.10
   -------------------------------------
