    Gamma-Ray Yields from Thermal Neutrons on Dy
 
          Energy(De)        Intensity
   -------------------------------------
            185.7 20          20.54
            538.4 20           7.47
            413.2 20           7.25
            497.6 20           4.60
            386.8 20           4.15
            912.1 20           2.96
            350.7 20           2.95
           5607.3 20           2.93
            465.8 20           2.72
            883.3 20           2.67
           2703.4 20           2.48
           5556.9 20           2.35
            447.3 20           2.01
            979.2 20           1.52
            584.1 20           1.52
           5143.8 20           1.43
           2948.5 20           1.36
           3444.7 20           1.33
           2733.6 20           1.25
           3275.8 20           1.22
           4124.2 20           1.12
            807.6 20           1.04
            648.8 20           1.04
              569  2           1.03
           1760.2 20           1.00
            477.1 20           0.94
           1735.4 20           0.93
           2067.4 20           0.92
           1059.9 20           0.90
           1221.4 20           0.82
           3013.6 20           0.80
           2554.7 20           0.79
             2114  2           0.77
           1274.7 20           0.73
           1127.4 20           0.67
            754.6 20           0.67
           3035.7 20           0.66
           4612.4 20           0.64
            430.3 20           0.64
           2660.2 20           0.63
           1071.5 20           0.63
            360.4 20           0.61
             2314  2           0.60
            596.6 20           0.60
            930.6 20           0.59
           1976.5 20           0.58
            251.9 20           0.58
           5177.3 20           0.57
           1722.1 20           0.56
            795.5 20           0.55
           2387.3 20           0.54
           5110.3 20           0.52
           2842.7 20           0.52
           3885.4 20           0.51
           2783.2 20           0.50
           1257.7 20           0.50
           3709.2 20           0.47
           2592.6 20           0.46
           1093.8 20           0.46
           3748.3 20           0.45
            200.3 20           0.44
           2268.5 20           0.42
           2019.8 20           0.42
           1806.1 20           0.42
           1291.6 20           0.41
           3071.3 20           0.39
            863.1 20           0.39
             3419  2           0.38
           3239.5 20           0.38
            282.3 20           0.38
           2609.2 20           0.37
           2444.6 20           0.36
           3841.4 20           0.35
           1109.8 20           0.35
           3772.8 20           0.34
           3608.4 20           0.34
              762  2           0.34
           2968.6 20           0.32
           2190.2 20           0.32
            688.9 20           0.30
           3114.8 20           0.28
           2865.7 20           0.28
            622.4 20           0.28
           3627.7 20           0.27
           2521.9 20           0.27
           2088.6 20           0.27
            611.8 20           0.27
             3961  2           0.26
           3349.5 20           0.26
           3316.5 20           0.26
           2506.8 20           0.26
           2368.3 20           0.26
             1024  2           0.26
           3556.6 20           0.25
           1017.1 20           0.25
            556.7 20           0.25
           2810.5 20           0.24
           4083.4 20           0.23
           3820.9 20           0.23
           2870.7 20           0.23
           2827.9 20           0.23
           2140.8 20           0.23
           3477.9 20           0.22
           2755.3 20           0.22
              634  2           0.20
            316.6 20           0.20
           4338.2 20           0.19
           4316.6 20           0.19
           2410.7 20           0.19
            787.4 20           0.19
            659.9 20           0.19
           2536.1 20           0.18
            671.7 20           0.18
            697.1 20           0.17
            367.2 20           0.17
            333.4 20           0.17
           5449.3 20           0.16
             4460  2           0.16
           2451.3 20           0.16
           2427.6 20           0.16
            215.8 20           0.16
           3945.2 20           0.15
           3148.7 20           0.15
           4155.8 20           0.14
           4068.2 20           0.14
           2804.6 20           0.14
            296.3 20           0.14
           3492.1 20           0.13
           3198.6 20           0.13
            310.6 20           0.13
            259.5 20           0.13
           2901.1 20           0.12
           3170.5 20           0.11
           3051.6 20           0.11
           4635.2 20           0.09
             3536  2           0.09
           2931.3 20           0.09
           2747.4 20           0.09
            208.1 20           0.09
             3732  2           0.08
           3648.7 20           0.08
           5879.9 20           0.07
           4548.6 20           0.07
           4275.4 20           0.07
           3574.4 20           0.07
           3527.7 20           0.07
           3406.7 20           0.07
           3215.5 20           0.07
             3159  2           0.07
           4427.8 20           0.06
           3376.9 20           0.06
           5373.8 20           0.05
           4677.7 20           0.05
           3901.7 20           0.05
           3469.1 20           0.05
           3176.5 20           0.05
           5848.4 20           0.04
           5415.6 20           0.04
           5335.8 20           0.04
           5264.7 20           0.04
           4800.6 20           0.04
           4782.8 20           0.04
           4498.2 20           0.04
           4407.3 20           0.04
           4251.1 20           0.04
           4200.8 20           0.04
           3924.7 20           0.04
           4981.4 20           0.03
           4581.5 20           0.03
   -------------------------------------
