    Gamma-Ray Yields from Thermal Neutrons on Er
 
          Energy(De)        Intensity
   -------------------------------------
              816  2          40.96
              198  2          14.89
            284.1 20          11.80
            853.4 20           4.91
            730.8 20           4.36
            632.1 20           3.73
            914.9 20           3.55
           1278.2 20           2.51
            741.3 20           2.29
              718  2           1.71
            447.3 20           1.54
           1352.9 20           1.46
            217.5 20           1.35
            864.3 20           1.20
            542.7 20           1.18
            930.5 20           1.01
           1835.9 20           0.96
              422  2           0.95
           6228.6 20           0.89
           1834.8 20           0.84
            798.9 20           0.84
            558.1 20           0.66
           1166.6 20           0.58
              397  2           0.58
           6676.6 20           0.57
            639.9 20           0.56
            965.6 20           0.51
           5878.1 20           0.49
            676.1 20           0.48
             1324  2           0.46
            498.3 20           0.46
            472.4 20           0.46
           1308.7 20           0.44
           1863.6 20           0.43
            615.5 20           0.43
              583  2           0.43
           1199.4 20           0.40
            532.2 20           0.40
            254.3 20           0.39
             5360  2           0.36
           4921.6 20           0.36
           1024.8 20           0.36
            699.6 20           0.36
           1332.3 20           0.35
            999.4 20           0.34
           6136.9 20           0.33
           5292.8 20           0.33
            269.8 20           0.33
           5113.2 20           0.32
           5673.1 20           0.31
           6050.8 20           0.30
           1979.4 20           0.30
            898.1 20           0.30
           3244.9 20           0.29
           2031.7 20           0.29
           1599.2 20           0.29
            346.7 20           0.29
            766.2 20           0.28
             5771  2           0.27
           5370.5 20           0.27
           2647.3 20           0.25
           5037.3 20           0.24
           3674.1 20           0.24
            482.8 20           0.23
            458.3 20           0.23
           5170.1 20           0.22
            431.5 20           0.22
           6577.6 20           0.19
           5858.1 20           0.19
           4742.9 20           0.19
            329.5 20           0.19
           4643.4 20           0.18
           6198.2 20           0.16
           5711.9 20           0.15
           5506.4 20           0.15
           5212.4 20           0.15
           5433.6 20           0.14
           4162.2 20           0.14
           4390.9 20           0.13
           6366.3 20           0.12
           5469.8 20           0.10
           4800.6 20           0.10
           5638.3 20           0.09
           5071.2 20           0.09
           5620.2 20           0.08
           6492.2 20           0.07
           6170.2 20           0.07
           5570.5 20           0.07
           5257.9 20           0.07
           5942.6 20           0.05
           6951.4 20           0.03
   -------------------------------------
