    Gamma-Ray Yields from Thermal Neutrons on Fe
 
          Energy(De)        Intensity
   -------------------------------------
          7631.13 10          28.51
          7645.45  9          24.13
           352.18 24          11.70
         5920.310 19           9.02
         6018.480 18           9.00
          1725.06  5           8.03
          1612.71  4           6.00
         7278.770 23           5.33
           7E02                5.29
          4218.30  7           4.26
           9298.4 20           4.15
          1260.63 10           2.57
          1019.03 10           2.47
          3413.19  8           1.91
            479.1 20           1.91
           9E02                1.85
          4809.96  7           1.80
          3436.65 10           1.78
          2721.33  4           1.67
          4406.13  7           1.66
           230.34  5           1.65
            366.5  3           1.59
          3267.39  6           1.49
          3854.28  6           1.33
           1358.6  4           1.11
            810.6 20           0.95
            920.5  4           0.85
         4948.860 16           0.83
           3918.8 20           0.80
          3103.26  8           0.80
          3185.82 10           0.76
          8885.77  4           0.74
         6380.750 22           0.74
            411.3 20           0.74
          2066.09 18           0.69
          2129.18  6           0.68
           1139.9 20           0.66
           4462.5  4           0.63
          2835.49 14           0.62
          2469.20 16           0.53
          2682.56 10           0.52
            597.1 20           0.51
           1776.5 20           0.50
          2873.68  6           0.48
           2526.5  3           0.48
             2000  2           0.47
           570.04 19           0.47
          3486.74 11           0.46
          4274.76 14           0.45
          2953.90 23           0.45
           1891.3 20           0.45
           1043.7 20           0.43
          4012.24 19           0.42
             1759  2           0.42
           2109.9 20           0.36
           1912.8 20           0.35
           3292.5 20           0.33
           3170.5  9           0.33
          3507.56 19           0.31
           3357.7  6           0.31
           4675.8 20           0.29
           3845.1 20           0.29
           2576.3 20           0.26
           1972.3 20           0.25
           1859.7 20           0.25
           3240.0  3           0.23
           2697.1  9           0.23
           2091.4 20           0.23
           2973.4 20           0.22
           2021.6 20           0.22
           2425.7 20           0.20
           3778.2  4           0.19
           1668.8 20           0.18
           3982.6 20           0.17
           3792.2  4           0.17
          3225.74  5           0.17
           2751.1 20           0.17
           1842.9 20           0.16
            314.2 20           0.16
           7550.7 20           0.15
             5746  2           0.15
           5493.4 20           0.15
           5141.5 20           0.15
             3397  2           0.15
           3665.8 20           0.14
           2922.5 20           0.14
           2655.9 20           0.14
           2366.9 20           0.14
           2153.4 20           0.14
            277.3 20           0.14
           5357.4 20           0.13
           4380.1 20           0.13
           4074.3 20           0.13
           2305.2 20           0.13
           5786.6 20           0.12
             4157  2           0.12
           3061.3  6           0.12
           2293.4 20           0.12
            10046  2           0.11
           6813.7 20           0.11
           6267.5 20           0.11
           3540.1 20           0.11
           2801.3 20           0.11
           2412.1 20           0.11
           2273.8 20           0.11
           2191.4 20           0.11
           2165.9 20           0.11
           7143.3 20           0.10
           5250.6 20           0.10
           2617.7 20           0.10
           2250.9 20           0.10
           5221.5 20           0.09
             4588  2           0.09
           3614.3 20           0.09
           2497.5 20           0.09
           8369.8 20           0.08
           7568.2 20           0.08
           6685.8 20           0.08
           6573.3 20           0.08
           5770.7 20           0.08
           5511.7 20           0.08
             4874  2           0.08
           3644.3 20           0.08
             3326  2           0.08
           7049.3 20           0.06
           6507.1 20           0.06
           6163.8 20           0.06
           5855.5 20           0.06
           5452.9 20           0.06
           5318.6 20           0.06
           5203.6 20           0.06
           5002.2 20           0.06
           4743.3 20           0.06
           3729.5 20           0.06
             8116  2           0.05
           7032.7 20           0.05
           6455.2 20           0.05
           6061.4 20           0.05
           5826.5 20           0.05
           5693.1 20           0.05
           5597.8 20           0.05
             5564  2           0.05
           5298.8 20           0.05
           5287.9 20           0.05
           5044.2 20           0.05
           4532.4 20           0.05
           3932.3 20           0.05
           3745.6 20           0.05
           3597.5 20           0.05
           3564.3 20           0.05
           3121.1 20           0.05
           3033.5 20           0.05
           2813.7 20           0.05
           7528.7 20           0.04
           7517.1 20           0.04
           7430.9 20           0.04
           7391.4 20           0.04
           7197.9 20           0.04
           7091.7 20           0.04
           6762.3 20           0.04
           6598.7 20           0.04
           5612.6 20           0.04
           5580.3 20           0.04
           5420.6 20           0.04
           5108.9 20           0.04
           4640.9 20           0.04
           4552.5 20           0.04
           4493.4 20           0.04
           4324.7 20           0.04
           4295.7 20           0.04
           4142.7 20           0.04
           4117.1 20           0.04
           3957.3 20           0.04
           3900.9 20           0.04
           3717.9 20           0.04
           3582.4 20           0.04
           3470.1 20           0.04
           3456.2 20           0.04
           3379.7 20           0.04
           3309.8 20           0.04
             6988  2           0.03
           5386.7 20           0.03
           5340.9 20           0.03
           5271.9 20           0.03
           4563.4 20           0.03
           4367.6 20           0.03
           4035.8 20           0.03
   -------------------------------------
