    Gamma-Ray Yields from Thermal Neutrons on Gd
 
          Energy(De)        Intensity
   -------------------------------------
           1186.5 20          10.83
              944  2          10.56
            199.4 20           9.50
            961.8 20           7.42
            897.3 20           6.51
           1107.3 20           4.47
            977.2 20           4.13
            780.7 20           3.36
           1118.4 20           3.25
           1324.4 20           2.71
            276.9 20           2.34
           6748.7 20           2.25
           1263.6 20           1.99
           1096.4 20           1.84
           1154.2 20           1.76
           1004.9 20           1.74
            999.1 20           1.61
           1142.4 20           1.51
            916.6 20           1.45
            255.6 20           1.22
            868.8 20           1.02
           1065.2 20           0.99
           5902.8 20           0.95
            294.9 20           0.88
            876.6 20           0.80
            607.4 20           0.72
            822.8 20           0.70
           1777.2 20           0.68
            816.6 20           0.61
           2700.9 20           0.50
           1220.3 20           0.49
            851.4 20           0.49
           2135.6 20           0.48
           2291.1 20           0.47
           1438.5 20           0.44
            538.7 20           0.42
           1040.1 20           0.38
           2799.1 20           0.36
           6418.8 20           0.33
           5676.1 20           0.33
           5178.6 20           0.33
            580.5 20           0.33
           4924.3 20           0.32
             5661  2           0.31
           5582.3 20           0.31
           2344.6 20           0.31
            988.5 20           0.31
           2597.1 20           0.29
            230.7 20           0.29
           2750.7 20           0.27
            625.6 20           0.27
           5402.6 20           0.26
           4220.4 20           0.26
           2515.3 20           0.26
           3001.9 20           0.25
           2577.3 20           0.25
           4875.9 20           0.24
           5784.4 20           0.23
           5431.7 20           0.22
           5057.1 20           0.22
           4089.1 20           0.22
              381  2           0.21
           5543.3 20           0.20
           5248.2 20           0.20
           4346.5 20           0.20
           3988.9 20           0.20
            239.3 20           0.20
           5591.6 20           0.18
           3451.1 20           0.18
            363.6 20           0.18
           2534.1 20           0.17
           4526.4 20           0.15
           4058.4 20           0.15
           3871.8 20           0.15
           2901.3 20           0.15
           5609.1 20           0.14
           5237.7 20           0.14
           5155.7 20           0.14
           3549.9 20           0.14
             6911  2           0.13
           4500.2 20           0.13
           6671.3 20           0.12
           4737.6 20           0.11
           6428.9 20           0.10
           3849.4 20           0.10
           7286.7 20           0.09
           6142.7 20           0.09
           4939.4 20           0.09
           4490.7 20           0.09
             4482  2           0.09
           4292.7 20           0.09
           4600.6 20           0.08
           4426.4 20           0.08
             4276  2           0.08
           3972.7 20           0.07
           6347.3 20           0.06
           5305.2 20           0.06
           5110.1 20           0.06
           5025.8 20           0.05
           5994.6 20           0.04
           6319.6 20           0.03
           7139.9 20           0.02
   -------------------------------------
