    Gamma-Ray Yields from Thermal Neutrons on Hg
 
          Energy(De)        Intensity
   -------------------------------------
            368.1 20          81.35
           1693.9 20          14.13
           5966.2 20          13.86
           4739.1 20           7.27
           1571.4 20           7.27
           2002.4 20           7.02
           5657.7 20           6.16
           6457.5 20           5.20
           5049.8 20           5.02
           4841.8 20           5.00
            661.1 20           4.47
           2639.5 20           3.88
           5387.6 20           3.82
           3185.7 20           3.34
           4758.8 20           3.24
           4675.4 20           2.99
           3288.6 20           2.98
           1719.5 20           2.71
            886.6 20           2.59
             1263  2           2.23
           1225.7 20           2.15
            579.4 20           1.96
           2271.9 20           1.80
           2920.2 20           1.29
           1407.6 20           1.23
             2214  2           1.20
           2900.6 20           1.16
           4974.8 20           1.15
           2296.7 20           1.12
           4953.6 20           1.04
           4574.3 20           1.02
           1862.4 20           0.97
             1254  2           0.93
           3216.2 20           0.90
           3268.4 20           0.89
           1274.2 20           0.86
           4811.3 20           0.84
             6397  2           0.79
            851.3 20           0.77
           1349.2 20           0.76
             6310  2           0.71
           2259.2 20           0.67
           2984.3 20           0.65
           3352.8 20           0.63
           4271.9 20           0.62
           4114.8 20           0.62
           2817.8 20           0.61
           3052.7 20           0.60
           1147.2 20           0.59
           4372.3 20           0.58
           2254.5 20           0.57
           3950.2 20           0.56
           3633.6 20           0.54
           3868.1 20           0.51
           4280.3 20           0.47
           2619.4 20           0.45
           5148.6 20           0.42
           5731.2 20           0.41
           3499.4 20           0.39
            540.1 20           0.39
           2704.8 20           0.38
           4094.9 20           0.32
           4555.2 20           0.30
           6229.9 20           0.28
           3073.7 20           0.28
           4351.2 20           0.27
           3425.3 20           0.27
           4243.1 20           0.26
           3850.2 20           0.26
           3748.4 20           0.26
           2883.6 20           0.26
             4604  2           0.25
             5566  2           0.24
             4536  2           0.24
           4458.1 20           0.23
           3125.3 20           0.22
           4799.5 20           0.21
           3840.2 20           0.21
           4919.3 20           0.20
           4893.5 20           0.20
           3891.8 20           0.20
           3601.5 20           0.18
             5484  2           0.15
           4904.7 20           0.12
   -------------------------------------
