    Gamma-Ray Yields from Thermal Neutrons on Ho
 
          Energy(De)        Intensity
   -------------------------------------
            239.8 20           6.24
            426.7 20           3.73
            290.3 20           3.35
            221.7 20           3.01
            543.5 20           2.97
            333.9 20           2.07
            372.4 20           2.02
            305.5 20           1.69
            411.3 20           1.29
            488.7 20           1.05
            455.6 20           1.05
              255  2           1.04
            402.4 20           0.89
           5813.1 20           0.76
            392.5 20           0.70
            634.7 20           0.64
           1619.6 20           0.63
            658.7 20           0.61
           2206.9 20           0.50
           1326.9 20           0.39
           5181.6 20           0.38
           5762.7 20           0.37
            267.8 20           0.33
           5212.3 20           0.32
            613.8 20           0.32
            442.6 20           0.32
           1379.8 20           0.30
           5870.6 20           0.29
           5082.2 20           0.29
             5428  2           0.28
           2994.8 20           0.28
            615.4 20           0.27
           6051.5 20           0.24
            464.6 20           0.23
           3309.9 20           0.21
           5128.8 20           0.20
           5523.5 20           0.18
            263.4 20           0.18
           4827.8 20           0.17
           3896.4 20           0.17
           4854.6 20           0.15
           4607.5 20           0.14
           5684.2 20           0.13
           4290.9 20           0.13
           5338.3 20           0.12
           4208.7 20           0.12
           3505.8 20           0.12
           4796.1 20           0.11
           3152.3 20           0.11
           4349.5 20           0.10
           2957.6 20           0.10
           5981.8 20           0.09
           5106.5 20           0.09
           4904.1 20           0.09
           4780.3 20           0.09
           4465.8 20           0.09
           4215.1 20           0.09
           3999.3 20           0.09
           3381.8 20           0.09
           4811.5 20           0.08
           5651.3 20           0.07
             4866  2           0.07
           4639.8 20           0.07
           4239.1 20           0.07
           5645.9 20           0.06
           5157.4 20           0.06
           4709.6 20           0.06
           4074.6 20           0.06
           3779.9 20           0.06
           3453.9 20           0.06
           5580.8 20           0.05
             5474  2           0.05
           5052.6 20           0.05
           5013.2 20           0.05
           5000.6 20           0.05
           4981.3 20           0.05
           4712.8 20           0.05
           4674.1 20           0.05
           4386.6 20           0.05
             4628  2           0.04
           5362.2 20           0.03
           5299.4 20           0.03
           5238.7 20           0.03
   -------------------------------------
