    Gamma-Ray Yields from Thermal Neutrons on In
 
          Energy(De)        Intensity
   -------------------------------------
           1293.4 20          17.59
             1097  2          11.94
           2112.1 20          10.71
            417.2 20           7.21
            273.3 20           6.92
            819.3 20           2.71
            335.6 20           2.25
            385.3 20           1.90
            298.4 20           1.81
           1507.5 20           1.78
            473.5 20           1.50
           1752.8 20           1.38
            557.5 20           1.38
              434  2           1.01
            608.3 20           0.96
            491.3 20           0.61
           5891.9 20           0.60
             3282  2           0.60
              886  2           0.58
            634.2 20           0.55
           1077.2 20           0.53
            203.9 20           0.47
           4969.4 20           0.44
           4774.9 20           0.44
           5103.4 20           0.42
           4913.2 20           0.41
           5141.1 20           0.40
           5172.2 20           0.37
            547.2 20           0.33
           1583.4 20           0.28
           4869.7 20           0.27
            219.1 20           0.27
           2056.5 20           0.26
           1848.3 20           0.26
           1981.8 20           0.25
            915.2 20           0.25
           4227.5 20           0.24
           2337.4 20           0.24
           2187.6 20           0.24
            645.6 20           0.24
            214.4 20           0.24
           1669.3 20           0.23
           1595.5 20           0.23
            717.8 20           0.23
           5409.7 20           0.22
           1311.6 20           0.22
            285.8 20           0.22
            578.5 20           0.21
           4580.1 20           0.20
           3876.6 20           0.20
           1438.8 20           0.20
            622.8 20           0.20
           5005.2 20           0.18
           4323.8 20           0.18
           3353.3 20           0.18
             3351  2           0.18
           2016.7 20           0.18
           2647.1 20           0.17
             2160  2           0.17
              848  2           0.17
           5333.2 20           0.16
             4743  2           0.16
           4700.5 20           0.16
           2405.2 20           0.16
             2004  2           0.16
           1067.8 20           0.16
            374.3 20           0.16
            320.4 20           0.16
           4074.6 20           0.15
           4006.9 20           0.15
           3544.9 20           0.15
             3161  2           0.15
           2662.4 20           0.15
           2579.9 20           0.15
           1245.8 20           0.15
            236.3 20           0.15
             5773  2           0.14
             5246  2           0.14
           3331.4 20           0.14
           1007.9 20           0.14
            973.6 20           0.14
            727.7 20           0.13
           2524.5 20           0.12
            875.6 20           0.12
            761.6 20           0.12
           6411.4 20           0.11
           5499.1 20           0.11
           3978.3 20           0.11
           3773.8 20           0.11
           2486.6 20           0.11
            368.2 20           0.11
            356.9 20           0.11
           3928.1 20           0.10
             3792  2           0.10
           3198.2 20           0.10
           2563.4 20           0.10
           5358.9 20           0.09
           5032.4 20           0.09
           4807.8 20           0.09
           4372.7 20           0.09
           2548.7 20           0.09
           2378.9 20           0.09
            445.6 20           0.09
           4651.4 20           0.08
           4309.3 20           0.08
           4058.7 20           0.08
             4045  2           0.08
           3374.5 20           0.08
           3115.4 20           0.08
           3053.5 20           0.08
           2703.9 20           0.08
           2630.8 20           0.08
           6323.2 20           0.07
           4823.7 20           0.07
           3554.8 20           0.07
             3426  2           0.07
           5580.9 20           0.06
           5319.1 20           0.06
           4849.7 20           0.06
           4441.6 20           0.06
           4420.8 20           0.06
             3811  2           0.06
           3716.2 20           0.06
             3400  2           0.06
           3267.6 20           0.06
           3081.4 20           0.06
           2891.9 20           0.06
           2824.7 20           0.06
           2772.6 20           0.06
           2743.4 20           0.06
            401.8 20           0.06
           5526.2 20           0.05
           5118.9 20           0.05
           3703.2 20           0.05
           3610.6 20           0.05
           3495.2 20           0.05
           3436.2 20           0.05
           2969.1 20           0.05
           2927.9 20           0.05
           2878.7 20           0.05
            232.3 20           0.05
           6231.1 20           0.04
           6047.4 20           0.04
           5812.6 20           0.04
           5481.5 20           0.04
           4613.1 20           0.04
           4555.2 20           0.04
           4261.9 20           0.04
           4134.3 20           0.04
           4121.7 20           0.04
           3740.8 20           0.04
           3596.9 20           0.04
           6135.2 20           0.03
           5712.5 20           0.03
             5384  2           0.03
           4684.6 20           0.03
           4150.4 20           0.03
           3955.5 20           0.03
   -------------------------------------
