    Gamma-Ray Yields from Thermal Neutrons on Ir
 
          Energy(De)        Intensity
   -------------------------------------
            200.4 20           6.27
            351.9 20           4.65
            217.4 20           1.79
           1618.8 20           1.77
            225.4 20           1.36
           5957.2 20           1.28
             5667  2           1.15
            418.8 20           1.14
            229.5 20           1.03
            263.2 20           0.88
            253.8 20           0.85
            247.8 20           0.82
           6081.3 20           0.81
           5782.3 20           0.78
           5564.1 20           0.76
            338.5 20           0.71
            574.2 20           0.57
            259.5 20           0.57
             4859  2           0.56
             5534  2           0.54
           5688.6 20           0.50
           5728.8 20           0.48
             4867  2           0.45
            558.2 20           0.45
            422.5 20           0.45
           5611.6 20           0.43
             5283  2           0.42
           5261.6 20           0.42
           5464.5 20           0.41
            838.5 20           0.39
           5329.3 20           0.37
           5147.3 20           0.36
            844.2 20           0.35
           5907.2 20           0.34
           4981.7 20           0.34
           5166.7 20           0.33
           5865.9 20           0.31
           5356.4 20           0.31
           4531.1 20           0.31
            597.8 20           0.30
            450.8 20           0.30
           4897.6 20           0.29
            981.1 20           0.29
           5516.1 20           0.28
            401.5 20           0.27
           5430.3 20           0.26
           5595.6 20           0.25
           5220.1 20           0.25
           5088.5 20           0.25
           4732.9 20           0.25
           4401.1 20           0.22
            680.8 20           0.20
           5758.5 20           0.19
           5303.9 20           0.19
           5194.9 20           0.19
           5067.5 20           0.19
           4755.1 20           0.18
           5821.5 20           0.17
           5399.1 20           0.17
           4588.3 20           0.17
           4365.6 20           0.17
           5926.9 20           0.16
             5129  2           0.16
           5628.4 20           0.14
           4839.1 20           0.14
           4712.3 20           0.14
           4257.1 20           0.14
           4808.8 20           0.13
           6003.5 20           0.12
           5806.7 20           0.11
           4507.3 20           0.11
           4474.9 20           0.11
           3965.2 20           0.11
           5486.7 20           0.10
           5448.3 20           0.10
           5027.1 20           0.10
           5385.3 20           0.08
   -------------------------------------
