    Gamma-Ray Yields from Thermal Neutrons on Kr
 
          Energy(De)        Intensity
   -------------------------------------
            881.8  6          84.00
           1213.2  7          37.00
           1463.5  4          26.00
            424.7  5          13.00
           1897.6  8           8.10
           6880.7  7           5.60
            943.8 19           5.40
           1979.3  7           4.90
            802.3  7           4.60
           2675.4  6           3.60
           6519.1  7           3.50
           2159.6  4           3.50
           1016.1  8           3.20
            448.6  6           3.20
           6803.5  8           2.60
           6931.7  8           2.20
           1124.5 10           2.20
           6306.9  7           1.90
           6244.5  7           1.90
            963.9 19           1.90
           5537.2  6           1.80
           3323.0  5           1.80
           5840.1  7           1.70
           5479.7  8           1.70
           8E03                1.50
           3579.5  7           1.50
           2581.1  7           1.50
           5824.3  7           1.40
           5781.2  7           1.40
           2768.8  8           1.40
           2760.9  8           1.40
           5792.6  7           1.30
           5251.9  7           1.30
           3367.1  6           1.30
           3148.2  5           1.30
           2200.2  7           1.30
           1077.6 12           1.30
            529.3  9           1.30
            419.3  7           1.30
           6962.7  9           1.20
           5340.8  7           1.20
           5057.6  7           1.20
           4714.6  8           1.20
           3617.3  7           1.20
           3420.6  6           1.20
           1961.0 10           1.20
           1542.5  5           1.20
           1330.3 13           1.20
           6281.5  7           1.10
           4395.2  7           1.10
           4042.2  8           1.10
           3762.7  7           1.10
           3513.5  7           1.10
           2837.3  7           1.10
           1878.7  4           1.10
           7207.5  9           1.00
           5652.0  7           1.00
           4590.3  8           1.00
           4582.8  8           1.00
           3110.7  6           1.00
           5220.6  8           0.99
            367.7  7           0.99
           6218.4  7           0.98
           4315.3  7           0.97
           3817.2  7           0.96
           3466.7  7           0.94
           2544.4  6           0.94
           1228.6 20           0.94
           4354.4  7           0.92
            611.4 11           0.92
           5312.9  7           0.91
           4724.4  8           0.91
           5287.2  7           0.89
           4480.6  7           0.88
           7430.4 12           0.87
           2092.5  4           0.86
           1742.4  6           0.85
            738.1  7           0.84
            604.7  9           0.84
           5590.6  7           0.83
              546  1           0.80
           8423.8 20           0.78
           1490.6  6           0.77
            986.8 17           0.77
           3990.3  7           0.75
           5762.9  7           0.74
           5405.3  7           0.74
           6063.3  7           0.72
           1780.2  6           0.69
           6036.7  7           0.68
           5352.8  7           0.67
           4893.3  8           0.67
           1293.3 11           0.66
            541.3 11           0.66
           1813.9  8           0.65
           5190.0  7           0.63
           1442.7 12           0.61
           5629.2  7           0.60
           6123.2  7           0.59
           4330.9  8           0.59
            519.6 11           0.59
           6328.9  8           0.58
           4425.6  8           0.58
            638.0 11           0.56
           4557.9  8           0.51
           1854.4  5           0.51
           1622.5  6           0.49
           4516.4  8           0.47
            706.9 10           0.47
           5099.4  9           0.46
           5965.7  7           0.45
           4161.4  8           0.45
           4135.5  8           0.45
            714.4  9           0.43
           6462.3  7           0.42
           4752.9  8           0.42
            189.3 10           0.42
           1060.0 20           0.41
           5942.0  7           0.39
           4494.5  8           0.38
           1046.2 19           0.38
           5078.6  9           0.36
           5925.4  7           0.34
           5725.1  8           0.34
           5365.8  7           0.32
           7478.6 14           0.31
           1709.5  7           0.31
            901.9 19           0.30
            694.3 12           0.29
           9636.4 20           0.28
           6491.4  7           0.26
           1682.1  7           0.26
           1656.0  7           0.25
           1088.6 21           0.25
            382.2  8           0.25
            354.2  9           0.25
           7820.5 15           0.23
           7056.5 11           0.22
           6352.5  7           0.22
           7301.0 12           0.21
           6164.1  8           0.20
           7725.5 15           0.18
           7662.7 14           0.17
           7682.8 15           0.12
           6413.1  7           0.12
           7720.0 17           0.09
           6536.8  9           0.08
           8618.9 20           0.06
           8174.7 20           0.05
           7797.6 20           0.02
   -------------------------------------
