    Gamma-Ray Yields from Thermal Neutrons on Mn
 
          Energy(De)        Intensity
   -------------------------------------
          26.6000  4          18.00
          7243.79  3          12.13
         7057.810 22          11.06
          83.9000 15          10.90
         212.0200 14           8.80
          104.620  2           8.40
         314.4000  5           6.76
          5527.41  4           6.65
         7159.690 25           5.81
          5014.95 11           5.73
         271.1700  1           4.48
          3409.09  6           3.54
          5181.59  3           3.52
          7270.29  3           3.36
          6783.39 19           3.36
           2016.5  2           3.36
             1747  2           3.31
          5068.24 12           2.87
          2331.20  3           2.78
           1987.6 20           2.74
          4725.34 11           2.50
           1915.2 20           2.50
          2044.70  4           2.46
          6928.77 15           2.40
          454.300  9           2.22
          6103.98 19           1.95
          2176.59 14           1.85
          2063.19  6           1.80
          188.520  6           1.80
          4567.12 19           1.73
          5760.96 17           1.69
          4949.42  4           1.68
           2211.3  2           1.62
           459.72  5           1.60
           5433.1  7           1.44
          3.8E3                1.41
           1705.4 20           1.39
          2294.79  7           1.37
          5436.99 13           1.27
          5254.30  3           1.24
           2023.9  2           1.11
           2521.8 20           1.09
         2090.400 10           1.04
          4446.00  2           1.03
          5920.51  8           1.00
          2677.69  8           0.96
          4829.69  6           0.95
          4689.96 11           0.94
           1876.2 20           0.94
           2205.3  2           0.93
          5035.44 12           0.92
          4223.49  8           0.88
          2437.79  7           0.88
           1401.7 20           0.88
          215.130  7           0.88
          4643.86 12           0.80
          2622.69 14           0.78
          4875.18  6           0.75
           716.43 14           0.74
          6429.14 21           0.73
          3266.81  7           0.73
          3003.40  2           0.73
           2338.4  2           0.70
          2594.49  8           0.69
          3927.12 20           0.66
          3.5E3                0.66
             1140  2           0.66
          5199.08  6           0.65
           3372.9 20           0.65
           4907.7  3           0.64
          4268.49  8           0.64
          3626.80  2           0.64
           4841.0  2           0.63
          3857.81  6           0.63
         3346.900 10           0.63
          354.110 25           0.62
           504.72  8           0.61
          375.180  3           0.59
          340.990 25           0.59
           3820.4  2           0.58
          3642.30  2           0.57
          2368.41 11           0.57
          6030.62 20           0.52
          4380.99  7           0.52
           2122.5  2           0.52
            558.7 20           0.52
          4550.53 16           0.51
          2471.30  2           0.50
           2147.3  2           0.50
          335.540  5           0.50
           2183.1  2           0.48
           274.28  3           0.46
          2970.20  4           0.43
          2926.89 13           0.42
          5404.54 12           0.41
          3752.29  9           0.41
           2342.6  2           0.40
           3399.6  2           0.39
           2832.9  2           0.39
          2864.39  9           0.38
          2610.60  5           0.38
           2138.5  2           0.38
          229.870  7           0.38
          3979.40  3           0.37
           3047.5  2           0.37
          2857.89 15           0.37
          2696.40  5           0.37
           2598.6  2           0.37
          4588.65 13           0.36
         4348.000 10           0.36
           4230.6  2           0.36
          2508.50  3           0.36
           5102.0  2           0.35
           4110.4  2           0.35
           2405.7  2           0.35
           2191.9  2           0.35
          3580.60  2           0.34
           2922.8  2           0.34
            646.4 20           0.34
          3203.90  3           0.33
           2515.0  2           0.33
           2261.0  2           0.33
          123.500  4           0.33
           3271.8  2           0.32
           2708.4  2           0.32
          4969.79  6           0.31
           541.40 22           0.31
          3553.92 16           0.30
           2582.0  2           0.30
           2320.2  2           0.30
          5111.67  8           0.29
          3783.60  5           0.29
           3021.7  2           0.29
          2451.92 19           0.29
           2396.4  2           0.29
           2372.1  2           0.29
           2953.8  2           0.28
          4103.68 24           0.27
           3549.2  2           0.27
          3.1E3                0.27
           4780.3 20           0.26
           3135.6  2           0.25
           2976.4  2           0.25
           2159.1  2           0.25
           499.66  9           0.25
          4935.16 18           0.24
          4415.38 23           0.24
           3573.9  2           0.24
           2534.6  2           0.24
          118.800  4           0.24
           3971.6  2           0.23
           2428.6  2           0.23
           4636.7  2           0.22
          4029.80  3           0.22
           3321.1 20           0.22
           3116.1  2           0.22
           2241.8  2           0.22
           7038.7 20           0.21
           4251.7  2           0.21
           2443.1  2           0.21
           2286.2  2           0.21
           2254.8  2           0.21
           486.47  8           0.21
           3527.6  2           0.20
           3387.8  2           0.20
           2310.0  2           0.20
            523.4  2           0.20
          29.8300 12           0.20
          3669.78 20           0.19
           3418.1  2           0.19
           3124.7  2           0.19
           2561.4  2           0.19
          6553.82 22           0.18
           5976.6  2           0.18
           4793.8  4           0.18
           3259.9  2           0.18
           2898.7  2           0.18
           2779.5  2           0.18
           2557.9  2           0.18
           5543.0  2           0.17
           5245.3  2           0.17
           3301.4  2           0.17
           3172.5  2           0.17
           2872.4  2           0.17
           5586.3 20           0.16
          4199.20  4           0.16
           4035.8  2           0.16
           3430.8  2           0.16
           6619.6  2           0.15
           5129.5  2           0.15
           3883.7  2           0.15
           3524.7  2           0.15
           3458.7  5           0.15
           3061.9  2           0.15
           5134.4  5           0.14
          4709.08 10           0.14
           4398.7  2           0.14
           4324.1  2           0.14
           3034.1  2           0.14
           2991.4  2           0.14
           5714.5  2           0.13
           4051.5  2           0.13
           3873.0  2           0.13
           3846.0  2           0.13
          3058.22 20           0.13
           6624.9  2           0.12
           3772.8  2           0.12
           3697.0  2           0.12
           3293.8  2           0.12
           3288.2  2           0.12
           2817.4  2           0.12
           2806.6  2           0.12
           4613.9  1           0.11
           4319.5  2           0.11
           3484.4  2           0.11
           3337.4  2           0.11
           3195.6  2           0.11
           3159.6  2           0.11
           2764.1  2           0.11
           5905.6  2           0.10
           4618.5  2           0.10
           4473.1  2           0.10
           4024.5  2           0.10
           3559.4  2           0.10
           3479.3  2           0.10
           2893.7  2           0.10
           2802.2  2           0.10
           2729.4  2           0.10
            516.4  3           0.10
           4048.1  8           0.09
           3897.0  8           0.09
           3601.5  8           0.09
           3247.3  8           0.09
           3242.5  8           0.09
           2769.2  8           0.09
           2721.6  8           0.09
           5313.6  8           0.08
           4670.6  8           0.08
           3837.0  8           0.08
           3588.5  8           0.08
           3437.4  8           0.08
           3363.5  8           0.08
           3316.9  8           0.08
           3191.5  8           0.08
           2842.1  8           0.08
           2644.1  8           0.08
          128.960  4           0.08
           6019.2  8           0.07
           4854.1  8           0.07
           4816.7  2           0.07
           4798.1  8           0.07
           4739.4  8           0.07
           4131.9  8           0.07
           2937.6  8           0.07
           2790.0  8           0.07
           2740.3  8           0.07
           242.36 10           0.07
           5485.5  8           0.06
           5298.3  8           0.06
           5290.3  8           0.06
           4469.8  2           0.06
           4423.7  8           0.06
           4330.4  8           0.06
           4001.1  8           0.06
           3961.7  8           0.06
           3955.0  8           0.06
           3605.6  8           0.06
           3213.7  8           0.06
           2545.7  8           0.06
           4982.9  8           0.05
           4768.8  8           0.05
           4187.2  8           0.05
           4127.7  8           0.05
           4007.2  8           0.05
           2885.6  8           0.05
          231.600 12           0.05
          113.350  4           0.05
           5707.0  8           0.04
           5601.3  8           0.04
           4298.5  8           0.04
           4191.6  8           0.04
           4173.9  8           0.04
           4088.5  8           0.04
           4084.5  8           0.04
           3798.7  8           0.04
           3723.2  8           0.04
           3716.2  8           0.04
           3658.7  8           0.04
           3451.6  8           0.04
           3236.8  8           0.04
           3076.6  8           0.04
           3072.7  8           0.04
           5846.0  8           0.03
           5678.6  8           0.03
           5637.5  8           0.03
           5563.9  8           0.03
           5493.5  8           0.03
           5464.7  8           0.03
           3231.6  8           0.03
           3098.1  8           0.03
           3089.3  8           0.03
           5794.8  8           0.02
           5733.9  8           0.02
           5625.3  8           0.02
           4764.1  8           0.02
           4751.7  8           0.02
           4603.3  8           0.02
           4076.0  8           0.02
           4068.3  8           0.02
           3901.7  2           0.02
           3738.4  8           0.02
           3222.4  8           0.02
           6318.1  8           0.01
           4364.5  8           0.01
   -------------------------------------
