    Gamma-Ray Yields from Thermal Neutrons on Os
 
          Energy(De)        Intensity
   -------------------------------------
           2223.3 20          25.02
              634  2          16.88
            187.3 20          15.23
            558.4 20          11.20
            478.3 20          11.17
            569.3 20           8.52
            323.6 20           4.68
            371.7 20           3.48
            828.7 20           2.96
            275.2 20           2.60
              362  2           2.32
            930.2 20           1.81
            987.7 20           1.70
            526.2 20           1.52
           1324.1 20           1.33
            253.8 20           1.25
           1175.7 20           1.20
            725.9 20           1.14
            886.9 20           1.10
           1267.4 20           1.04
            492.3 20           0.99
            335.4 20           0.92
            899.9 20           0.89
            689.9 20           0.76
           1053.1 20           0.72
            669.1 20           0.64
            607.5 20           0.61
           5146.9 20           0.58
            412.7 20           0.58
            845.5 20           0.53
            431.9 20           0.53
              397  2           0.49
            775.9 20           0.48
            434.9 20           0.48
            409.5 20           0.48
            330.9 20           0.43
            646.7 20           0.41
           2261.3 20           0.40
             5274  2           0.38
             1436  2           0.38
            232.3 20           0.31
            386.6 20           0.28
            306.3 20           0.28
             5684  2           0.26
           4812.8 20           0.23
           2285.5 20           0.21
            295.5 20           0.21
           1887.5 20           0.18
           4530.7 20           0.16
           2458.8 20           0.16
           6587.2 20           0.15
           1803.7 20           0.15
           2505.2 20           0.13
             2130  2           0.13
           5414.9 20           0.12
           4675.2 20           0.12
           4295.7 20           0.12
           5342.1 20           0.10
           5170.9 20           0.10
           5011.8 20           0.10
           4407.1 20           0.10
           2330.4 20           0.10
           7234.2 20           0.08
             5933  2           0.08
           5884.2 20           0.08
           5530.6 20           0.08
           5367.8 20           0.08
           4555.7 20           0.08
           4222.5 20           0.08
           2160.4 20           0.08
           7834.4 20           0.07
           7792.6 20           0.07
           6411.2 20           0.07
             6217  2           0.07
           5483.5 20           0.07
           4751.1 20           0.07
           4716.3 20           0.07
           3816.1 20           0.07
           3465.9 20           0.07
           3334.1 20           0.07
           3176.8 20           0.07
           2815.8 20           0.07
           2666.5 20           0.07
           2620.9 20           0.07
           2605.2 20           0.07
           2082.2 20           0.07
           7990.5 20           0.05
           6247.2 20           0.05
           6059.9 20           0.05
           5583.3 20           0.05
           5571.5 20           0.05
           5249.1 20           0.05
           5097.3 20           0.05
           4845.4 20           0.05
           4460.7 20           0.05
           3156.4 20           0.05
           3052.5 20           0.05
           3021.9 20           0.05
           2938.5 20           0.05
             2588  2           0.05
           2574.4 20           0.05
           2436.7 20           0.05
           6620.4 20           0.03
           6181.6 20           0.03
           5969.5 20           0.03
           5702.6 20           0.03
           5640.4 20           0.03
           5036.9 20           0.03
           4977.8 20           0.03
           4962.2 20           0.03
           4920.7 20           0.03
           4800.9 20           0.03
           4615.7 20           0.03
           4594.1 20           0.03
             4344  2           0.03
           4253.3 20           0.03
           3979.5 20           0.03
           3956.7 20           0.03
           3748.9 20           0.03
             3677  2           0.03
           3516.2 20           0.03
           3402.3 20           0.03
           3386.5 20           0.03
           3361.4 20           0.03
           3274.1 20           0.03
           3239.3 20           0.03
           3225.2 20           0.03
           7605.2 20           0.02
           6987.4 20           0.02
           6785.7 20           0.02
           6558.5 20           0.02
           6357.6 20           0.02
           6321.2 20           0.02
             6157  2           0.02
           6081.6 20           0.02
           5919.6 20           0.02
           5723.1 20           0.02
           5505.7 20           0.02
             5447  2           0.02
             5395  2           0.02
           5229.6 20           0.02
           5079.5 20           0.02
             4508  2           0.02
           4355.9 20           0.02
           4072.4 20           0.02
           3900.7 20           0.02
           3831.3 20           0.02
           3767.4 20           0.02
           3571.3 20           0.02
           3140.9 20           0.02
           3095.7 20           0.02
   -------------------------------------
