    Gamma-Ray Yields from Thermal Neutrons on  P
 
          Energy(De)        Intensity
   -------------------------------------
           3900.3 20          15.96
           2154.2 20          15.23
           1413.1 20          14.04
           4671.3 20          13.80
           3522.8 20          13.15
           6785.3 20          12.98
            636.2 20          12.18
           1070.6 20           8.55
           2114.3 20           6.94
             1890  2           6.05
           3058.3 20           5.87
           7421.2 20           5.31
           3273.8 20           5.31
           1941.9 20           5.30
           2586.1 20           4.79
           4364.3 20           4.58
           5266.2 20           4.36
            595.2 20           3.92
           1734.2 20           3.89
           3924.9 20           3.62
           1674.1 20           3.55
            557.6 20           3.42
           5704.8 20           3.19
           2886.2 20           3.06
           1629.9 20           2.81
            250.9 20           2.71
             4200  2           2.63
           2172.6 20           2.59
           1688.2 20           2.36
            243.6 20           2.18
           2863.1 20           2.14
              869  2           2.02
            472.4 20           1.99
           1380.6 20           1.98
            479.5 20           1.86
           3185.4 20           1.72
             2657  2           1.71
            706.5 20           1.70
           2424.7 20           1.66
           2021.8 20           1.65
           2295.4 20           1.59
           4490.5 20           1.57
           1760.1 20           1.57
           1321.4 20           1.56
           2244.6 20           1.45
            325.3 20           1.42
           1032.4 20           1.37
           2034.1 20           1.33
            915.3 20           1.18
           2250.6 20           1.13
            944.6 20           1.13
           5194.8 20           1.10
            436.1 20           1.09
           1999.8 20           1.08
           2262.7 20           1.01
           7856.2 20           1.00
           3121.9 20           0.96
           5778.3 20           0.90
           3444.1 20           0.90
             3551  2           0.89
             2276  2           0.89
            449.3 20           0.87
           2285.1 20           0.81
            336.5 20           0.77
           2603.1 20           0.74
           6915.3 20           0.70
           4877.1 20           0.70
           2460.7 20           0.67
           6194.6 20           0.65
           2705.1 20           0.65
            227.3 20           0.65
           4911.9 20           0.60
           2309.1 20           0.58
            371.5 20           0.58
           6319.5 20           0.57
           5088.3 20           0.57
           6418.9 20           0.56
           3368.3 20           0.56
           7306.2 20           0.55
            427.7 20           0.54
           2553.9 20           0.52
           6707.8 20           0.51
             3594  2           0.51
           6504.7 20           0.45
           4613.7 20           0.45
           6275.7 20           0.44
           3768.2 20           0.44
              233  2           0.44
           7179.2 20           0.41
           4629.2 20           0.41
           5816.5 20           0.40
           5532.4 20           0.40
           3318.1 20           0.40
           2774.2 20           0.40
             6392  2           0.39
           3960.3 20           0.39
           3087.8 20           0.39
           4129.6 20           0.38
           3482.1 20           0.37
             3152  2           0.37
           4408.3 20           0.36
           3610.6 20           0.36
           7788.6 20           0.34
             3168  2           0.34
           6061.9 20           0.33
           3336.7 20           0.33
           2992.1 20           0.33
           4146.8 20           0.32
             4261  2           0.31
           5298.8 20           0.29
           4592.7 20           0.29
           3339.6 20           0.29
           4324.3 20           0.28
           3303.4 20           0.28
           3220.6 20           0.28
           7938.1 20           0.27
           6036.3 20           0.27
           3971.3 20           0.27
           5860.1 20           0.26
           5939.6 20           0.25
           5619.4 20           0.25
           5349.3 20           0.25
           5155.2 20           0.25
           3741.9 20           0.25
           3634.4 20           0.25
           2958.8 20           0.25
           6226.1 20           0.24
           5427.7 20           0.22
           5730.7 20           0.21
           4568.3 20           0.21
   -------------------------------------
