    Gamma-Ray Yields from Thermal Neutrons on Rh
 
          Energy(De)        Intensity
   -------------------------------------
            217.2 20           8.71
            267.8 20           2.69
            334.7 20           2.38
            324.9 20           1.92
            645.4 20           1.70
           1620.9 20           1.64
            556.4 20           1.49
           5346.9 20           1.29
            789.9 20           1.11
           5916.8 20           0.97
            306.3 20           0.97
           5266.2 20           0.93
           2214.3 20           0.90
            537.7 20           0.81
            469.9 20           0.77
            440.9 20           0.75
              482  2           0.74
            201.9 20           0.70
           6045.9 20           0.68
           6211.2 20           0.66
            262.8 20           0.58
           6082.5 20           0.57
           5522.9 20           0.52
           6171.5 20           0.51
           5154.4 20           0.49
            950.8 20           0.48
            375.2 20           0.47
            597.5 20           0.44
           5203.9 20           0.43
            421.1 20           0.43
           4509.7 20           0.42
           2722.3 20           0.42
            249.3 20           0.39
           6353.9 20           0.37
           6785.8 20           0.36
           4632.8 20           0.34
            818.4 20           0.31
           5796.5 20           0.29
           4482.8 20           0.29
           3642.8 20           0.28
           4547.9 20           0.26
           3968.6 20           0.26
           3483.2 20           0.26
           6108.3 20           0.24
            833.9 20           0.23
              387  2           0.23
            752.6 20           0.22
              342  2           0.22
            237.2 20           0.22
           4541.5 20           0.21
           5812.1 20           0.20
           5433.2 20           0.20
             4305  2           0.20
           4220.9 20           0.20
           4726.4 20           0.19
           5673.8 20           0.18
           5547.8 20           0.18
           1007.7 20           0.18
            816.1 20           0.18
              287  2           0.18
           4359.6 20           0.17
           3727.9 20           0.17
           5617.5 20           0.16
           5006.3 20           0.16
           4833.7 20           0.16
           4447.8 20           0.16
           1052.2 20           0.16
            358.2 20           0.16
            289.2 20           0.16
             6303  2           0.15
           6419.4 20           0.14
           4972.4 20           0.14
           4914.9 20           0.14
           4022.4 20           0.14
           5110.2 20           0.13
           3591.1 20           0.13
           5461.7 20           0.12
            254.2 20           0.12
           5601.9 20           0.11
           5021.7 20           0.11
           4861.2 20           0.11
             4690  2           0.11
           5323.1 20           0.10
           5134.5 20           0.10
           4900.4 20           0.10
           4696.9 20           0.09
           4327.5 20           0.09
              232  2           0.09
           6997.9 20           0.07
   -------------------------------------
