    Gamma-Ray Yields from Thermal Neutrons on Ru
 
          Energy(De)        Intensity
   -------------------------------------
              540  2          10.69
            475.1 20           6.84
           1628.5 20           5.88
            174.8 20           5.47
            687.4 20           4.01
             1620  2           3.64
            630.8 20           3.60
            160.3 20           2.23
           1701.5 20           1.82
           1827.3 20           1.55
           1103.7 20           1.34
            823.1 20           1.03
           5022.1 20           0.98
           1342.1 20           0.93
           1362.2 20           0.89
           6273.5 20           0.82
             6342  2           0.80
           1627.4 20           0.75
             4627  2           0.72
           1046.5 20           0.62
           4350.5 20           0.60
             7177  2           0.53
            403.8 20           0.49
            737.4 20           0.48
           7102.8 20           0.47
           6113.8 20           0.47
           6626.5 20           0.43
           4394.7 20           0.43
           2459.7 20           0.42
            250.8 20           0.42
           4269.8 20           0.38
           7506.3 20           0.36
           4325.8 20           0.34
           3947.1 20           0.34
           4216.8 20           0.32
           4024.4 20           0.32
           6208.3 20           0.31
           1302.4 20           0.31
           6957.2 20           0.30
           5151.8 20           0.30
            711.6 20           0.30
           4477.3 20           0.28
           3321.3 20           0.28
            850.2 20           0.28
           5893.9 20           0.27
             5333  2           0.27
           5300.7 20           0.27
           4007.8 20           0.25
            271.2 20           0.24
           6689.6 20           0.22
           3656.1 20           0.22
              359  2           0.22
           6325.8 20           0.21
           5750.4 20           0.21
           3787.8 20           0.21
           6371.4 20           0.19
           4653.1 20           0.19
            591.9 20           0.19
           7610.1 20           0.18
           7306.7 20           0.18
           6561.8 20           0.18
           6753.6 20           0.17
            211.2 20           0.17
           6507.5 20           0.15
           6184.3 20           0.15
           5586.3 20           0.15
           5091.4 20           0.15
           4881.4 20           0.15
           4586.2 20           0.15
            362.6 20           0.15
           9135.2 20           0.14
           7694.7 20           0.14
           6298.6 20           0.13
           5871.1 20           0.13
           5853.5 20           0.13
           4828.2 20           0.13
           5670.5 20           0.12
           5567.7 20           0.12
            418.1 20           0.12
           8113.2 20           0.11
           5941.6 20           0.11
            664.5 20           0.11
           5910.5 20           0.10
           5770.9 20           0.10
           4886.2 20           0.10
           8309.8 20           0.09
           6416.2 20           0.08
   -------------------------------------
