    Gamma-Ray Yields from Thermal Neutrons on Si
 
          Energy(De)        Intensity
   -------------------------------------
           3539.1  3          68.00
           4934.4  5          62.69
          2092.90  4          21.52
          1273.33  7          15.93
           6380.7  9          12.37
           7200.6  5           7.77
           1775.0  6           4.00
           1757.6  6           4.00
           3661.4  5           3.89
            246.9 20           3.76
           5107.2  7           3.75
            250.5 20           3.63
          2426.01 17           3.05
           1764.4  6           3.00
           8472.9  4           2.44
           3955.1  5           2.26
           2029.8 16           2.25
           2781.5  8           2.17
           2235.2  3           1.60
          752.390  1           1.48
          3054.16 11           1.41
           6747.2 20           1.40
           6743.2  4           1.36
           3864.9  3           1.32
          3101.80  8           1.26
           2336.5 20           0.99
           1332.2 20           0.99
            596.2 20           0.87
           2157.5 20           0.86
           5271.4  5           0.80
             1294  2           0.80
           1446.2  3           0.70
            559.5 20           0.70
            693.2 20           0.67
          1152.57 13           0.61
             5273  3           0.60
           1867.1  3           0.60
          1793.54 20           0.60
           1540.6  5           0.50
          6046.34 20           0.49
           3086.5 20           0.47
              656  2           0.47
           2508.2  7           0.45
           2446.6  7           0.43
          10608.2 12           0.40
             5300  3           0.40
           1565.4  4           0.40
              383  2           0.38
           7277.5 20           0.37
            449.9 20           0.37
           3632.7 20           0.34
           4508.2  6           0.32
           4811.2 20           0.31
           3116.4 20           0.31
             7464  3           0.30
           3306.3 20           0.30
           1552.1  5           0.30
          1534.46 20           0.30
           1381.8  4           0.30
           1262.5 10           0.30
             1039  3           0.30
           4840.0  5           0.28
             6287  2           0.27
          4528.71  9           0.25
           7055.8  4           0.24
           4733.3 20           0.23
          3769.87 13           0.23
           3432.4 20           0.23
           3278.8 20           0.23
           4323.3 20           0.22
           3499.3 20           0.21
           7112.1 20           0.20
             5261  3           0.20
           5070.6 20           0.20
           5027.5 20           0.20
           4407.6 20           0.20
           2205.1  3           0.20
           1695.2  5           0.20
           6419.6  4           0.19
           5297.5  7           0.19
           6244.1 20           0.17
             7845  3           0.15
             8372  3           0.10
           6445.1 12           0.10
           4599.6 20           0.10
           2906.3 10           0.10
          1415.66 20           0.10
           1305.4  3           0.10
             4902  3           0.07
   -------------------------------------
