    Gamma-Ray Yields from Thermal Neutrons on Te
 
          Energy(De)        Intensity
   -------------------------------------
            603.1 10           9.34
           2746.9 10           2.60
            723.2 10           1.72
           6322.8 10           1.60
           1721.6 10           1.59
           1580.8 10           1.40
           1619.4 10           1.36
           1918.2 10           1.27
           2039.2 10           1.18
              646  1           0.97
           1692.4 10           0.95
           2181.3 10           0.77
           1998.3 10           0.77
           2386.2 10           0.72
           3543.5 10           0.71
           2609.5 10           0.70
           2783.7 10           0.65
           5879.9 10           0.61
           2286.4 10           0.57
           5667.4 10           0.55
           6210.4 10           0.53
            354.3 10           0.52
           2615.1 10           0.50
           2635.8 10           0.46
           3346.3 10           0.45
           3153.9 10           0.43
           1488.8 10           0.42
             2927  1           0.38
           2602.5 10           0.38
           7331.5 10           0.36
             3722  1           0.36
           5457.6 10           0.33
             3092  1           0.32
           5712.6 10           0.31
           2443.3 10           0.31
           1437.3 10           0.29
           1200.8 10           0.29
              557  1           0.29
           2490.7 10           0.28
            415.7 10           0.28
           8097.8 10           0.27
           2973.5 10           0.27
           5045.3 10           0.26
           3222.5 10           0.26
             2809  1           0.26
           5250.3 10           0.24
            422.5 10           0.24
             7633  1           0.23
           5278.1 10           0.23
           3776.8 10           0.23
           2942.2 10           0.23
            666.2 10           0.23
           4684.2 10           0.22
             4433  1           0.22
           4079.8 10           0.22
           2704.9 10           0.22
              594  1           0.22
           5893.8 10           0.21
           4981.9 10           0.20
             3237  1           0.20
           5227.2 10           0.19
           3104.8 10           0.19
           6025.7 10           0.18
           7643.5 10           0.17
             6734  1           0.17
           6533.6 10           0.17
           6030.6 10           0.17
           5971.6 10           0.17
           1053.7 10           0.17
           1325.9 10           0.16
           8817.1 10           0.15
           5194.9 10           0.15
           5180.1 10           0.15
           3025.2 10           0.15
            297.2 10           0.15
            251.7 10           0.15
           6185.4 10           0.14
           5373.4 10           0.14
           4611.7 10           0.14
           4134.9 10           0.14
             3884  1           0.14
           2987.6 10           0.14
            693.5 10           0.14
           7100.3 10           0.13
           4344.9 10           0.13
           4153.4 10           0.13
           3815.1 10           0.13
            828.5 10           0.13
           4509.7 10           0.12
             3964  1           0.12
           2797.3 10           0.12
            713.5 10           0.12
            418.6 10           0.12
           6614.1 10           0.11
           4531.9 10           0.11
           4491.3 10           0.11
           4103.4 10           0.11
           3588.1 10           0.11
            244.8 10           0.11
            203.7 10           0.11
             4989  1           0.10
           4228.9 10           0.10
           3921.2 10           0.10
           5839.1 10           0.09
           5206.1 10           0.09
           4253.7 10           0.09
           4043.2 10           0.09
           6376.8 10           0.08
           4854.1 10           0.08
           4658.7 10           0.08
           4388.6 10           0.08
           3673.9 10           0.08
           3488.6 10           0.08
           7722.9 10           0.07
           4673.1 10           0.07
             7791  1           0.06
           5560.5 10           0.06
           5100.7 10           0.06
              215  1           0.06
             6480  1           0.05
           5618.4 10           0.05
           4781.2 10           0.05
   -------------------------------------
