    Gamma-Ray Yields from Thermal Neutrons on Ti
 
          Energy(De)        Intensity
   -------------------------------------
         1381.480 19          69.08
           6418.4  5          30.13
            341.7 20          26.27
          6759.78 24          24.17
         1585.970  3           8.87
          1761.85  6           5.64
           4882.5  6           5.23
           6556.5  5           4.73
          1498.47  4           4.06
           4968.7 11           3.61
           983.48  6           2.56
          3027.04 12           2.53
          1793.32 18           2.53
           3921.0  6           1.80
          3475.68 19           1.75
          1553.38  8           1.28
             2048  2           1.26
           3554.2 20           1.21
          1842.14  9           1.21
          3733.93  8           1.04
           4714.8  9           1.03
           2944.5  8           1.03
           1881.4  8           0.97
          1121.11 24           0.92
           2086.8 20           0.89
             4673  2           0.87
           2277.7 20           0.87
           2967.3 20           0.80
           2841.1  4           0.77
           1312.1  3           0.77
         5637.180 25           0.73
             2616  2           0.73
           3231.1 20           0.72
           1437.3  5           0.70
           3709.6 20           0.69
              870  2           0.57
           1984.0 10           0.50
             7062  4           0.45
             3544  3           0.44
           2371.3 20           0.44
           3083.2  3           0.39
           2511.8 20           0.38
             2496  2           0.37
          5561.13 19           0.36
           1328.3  5           0.36
           6109.1 20           0.33
           4355.2 20           0.31
           2634.9 20           0.30
            649.5 20           0.30
            596.6 20           0.30
             6882  2           0.27
            559.4 20           0.27
            471.7 20           0.26
            252.1 20           0.26
           1675.2  8           0.22
           7168.5 10           0.21
           3329.1 20           0.21
           3270.6 20           0.21
            480.7 20           0.21
           7626.4 20           0.20
           4031.8 20           0.20
             3131  2           0.20
             2260  4           0.20
             2216  4           0.20
           1473.3 10           0.20
           1451.0 20           0.20
             6150  2           0.19
           5267.7 20           0.19
           4812.7 20           0.19
           3307.1 20           0.19
           3116.3 20           0.19
            943.7  5           0.19
            902.0  6           0.19
           6169.8 20           0.18
           5541.3 20           0.18
           5445.2 20           0.18
            918.2  5           0.18
            327.5 20           0.18
             6908  2           0.17
           5687.3 20           0.17
           5498.5 20           0.17
           4222.4 20           0.17
           5755.1 20           0.16
           5476.6 20           0.15
             5092  2           0.15
           4133.7 20           0.15
           3903.6 20           0.15
           3870.3 20           0.15
           6521.1 20           0.14
           6481.6 20           0.14
           6199.7 20           0.14
           5394.5 20           0.14
           3997.5 20           0.14
           1134.6  5           0.14
            304.9 20           0.14
             9208  3           0.13
           8263.0  9           0.13
           8011.0 14           0.13
           6333.4 20           0.13
           6287.8 20           0.13
           5967.4 20           0.13
           5801.8 20           0.12
            889.1  5           0.12
           4920.1 20           0.11
           7333.4 20           0.10
           7082.5 20           0.10
           3762.4 20           0.10
             3530 10           0.10
           9388.1 20           0.09
           2238.9 20           0.08
            928.7  7           0.08
           1046.2 10           0.07
             8409  5           0.06
             8389  5           0.06
            878.5  5           0.05
             6818  6           0.04
          10645.8 20           0.03
             7216  5           0.03
           8255.3 20           0.02
             8113  5           0.02
             8280  5           0.01
   -------------------------------------
