    Gamma-Ray Yields from Thermal Neutrons on  W
 
          Energy(De)        Intensity
   -------------------------------------
            199.3 20          56.45
           6190.2 20           4.78
           5261.3 20           4.41
            551.6 20           4.04
            273.2 20           3.58
           5319.9 20           2.89
            228.1 20           2.70
           5163.9 20           2.01
           1618.6 20           1.75
           6143.9 20           1.73
            891.8 20           1.68
            772.5 20           1.47
           4248.7 20           1.45
            291.6 20           1.42
           4684.3 20           1.41
            577.9 20           1.32
            253.1 20           1.26
           1633.9 20           1.10
           4626.2 20           1.09
           3470.4 20           1.07
           4572.9 20           0.90
           1027.1 20           0.90
           3534.4 20           0.78
             3739  2           0.77
           4383.3 20           0.71
            815.7 20           0.71
           2843.5 20           0.69
              840  2           0.66
           2740.3 20           0.63
            314.1 20           0.58
           2324.2 20           0.57
           7410.7 20           0.55
            656.8 20           0.54
           2346.6 20           0.53
           4014.6 20           0.52
           4117.9 20           0.45
           3846.9 20           0.44
           3561.5 20           0.44
            908.2 20           0.43
            902.3 20           0.42
           2908.5 20           0.41
             3054  2           0.40
           2060.7 20           0.40
           1438.7 20           0.39
           1081.2 20           0.39
           4649.2 20           0.38
           1067.5 20           0.38
             3801  2           0.37
           2707.7 20           0.37
             4518  2           0.36
           4159.4 20           0.36
           4446.3 20           0.35
           3190.1 20           0.35
           2900.5 20           0.34
           4081.1 20           0.33
           3376.1 20           0.33
           3206.4 20           0.33
           2880.3 20           0.32
           1386.2 20           0.32
            979.5 20           0.32
           4330.4 20           0.31
           6407.5 20           0.30
           6021.2 20           0.30
           4562.5 20           0.30
            865.7 20           0.30
            660.6 20           0.30
           3310.5 20           0.29
           4558.1 20           0.28
           3577.7 20           0.28
            792.8 20           0.28
              430  2           0.27
            424.2 20           0.27
           3422.4 20           0.26
           2585.8 20           0.26
           2510.4 20           0.26
            304.2 20           0.25
           4303.4 20           0.23
           3494.1 20           0.23
            355.7 20           0.23
           4369.4 20           0.22
           2452.7 20           0.22
           4063.7 20           0.21
           3963.6 20           0.21
             3760  2           0.21
           3510.3 20           0.21
           2760.1 20           0.20
            435.6 20           0.20
           5247.5 20           0.18
             4719  2           0.18
             3902  2           0.18
           3817.4 20           0.18
           3095.1 20           0.18
           1472.4 20           0.18
            727.4 20           0.18
             4025  2           0.17
           1215.6 20           0.16
           4221.6 20           0.15
           3775.2 20           0.15
           3223.9 20           0.15
             6291  2           0.14
           4489.7 20           0.14
           3668.1 20           0.14
           7297.7 20           0.12
           5237.9 20           0.12
           3651.5 20           0.12
           3596.7 20           0.12
           3359.1 20           0.12
           5795.8 20           0.11
           5016.1 20           0.11
           3865.5 20           0.11
           3118.8 20           0.11
           3686.3 20           0.10
           3348.2 20           0.09
           3327.9 20           0.09
           4746.5 20           0.08
             4202  2           0.07
           4136.4 20           0.07
           3885.4 20           0.06
           5938.3 20           0.04
   -------------------------------------
