               LEAST-SQUARES LINEAR REGRESSION OF LEVEL AND GAMMA ENERGIES
 
        LEVEL ENERGIES
    1.     0.0
    2.    13.27 4                       
    3.    66.74 6                       
    4.    68.745 18                     
    5.   353.51 20                      
    6.   364.00 9                       
    7.   392.49 10                      
    8.   498.93 20                      
    9.   501.41 12                      
   10.   554.88 12                      
   11.   597.61 21                      
   12.   915.49 24                      
   13.   931.71 11                      
   14.  1042.53 10                      
   15.  1131.89 12                      
   16.  1264.43 10                      
   17.  1339.7 3                        
   18.  1386.9 11                       
   19.  1544.6 11                       
   20.  1892.1 4                        
   21.  2132.1 11                       
   22.  2188.8 11                       
   23.  2210.6 11                       
   24.  2290.9 11                       
   25.  2401.7 11                       
   26.  2419.4 11                       
   27.  2483.5 11                       
   28.  2564.9 11                       
   29.  2706.3 11                       
   30.  2720.6 11                       
   31.  2774.9 11                       
   32.  2884.5 11                       
   33.  2930.5 11                       
   34.  6782.95 9                       
 
   GAMMA ENERGIES
       72GE(N,G) E=THERMA-  ENERGY     DE    L1  L2
 -----------------------------------------------------------------------------------------------------------------------------------
             13.26 5             13.27 4     2  1                                                                                   
             53.47 5             53.47 5     3  2                                                                                   
            55.42 10             55.47 5     4  2                                                                                   
           68.746 18           68.744 18     4  1                                                                                   
             191.0 3           190.88 11    10  6                                                                                   
           233.60 20           233.61 20    11  6                                                                                   
           284.70 20           284.77 20     5  4                                                                                   
            297.24 8            297.26 7     6  3                                                                                   
    (1     326.00 20            325.75 8     7  3                                                                                   
           430.20 20           430.19 20     8  4                                                                                   
           430.20 20           430.30 14    13  9                                                                                   
           432.70 20           432.67 12     9  4                                                                                   
            485.3 10           485.66 20     8  2                                                                                   
           488.00 20           488.14 11    10  3                                                                                   
           488.00 20           488.14 12     9  2                                                                                   
            531.1 10           530.87 21    11  3                                                                                   
           541.80 20           541.61 11    10  2                                                                                   
    (1      560.3 10             562.0 3    12  5                                                                                   
             650.1 4            650.04 6    14  7                                                                                   
    (3     679.30 20            678.53 5    14  6                                                                                   
             739.4 6            739.39 9    15  7                                                                                   
    (3       769.9 6            767.88 9    15  6                                                                                   
             784.7 3           784.82 24    17 10                                                                                   
             975.9 4           975.69 25    17  6                                                                                   
            1064.8 6          1065.14 10    15  3                                                                                   
    (1     1250.1 10           1251.14 9    16  2                                                                                   
           1386.9 15           1386.9 11    18  1                                                                                   
           1544.7 16           1544.6 11    19  1                                                                                   
           1892.1 16            1892.1 4    20  1                                                                                   
           2132.1 15           2132.1 11    21  1                                                                                   
           2188.8 15           2188.8 11    22  1                                                                                   
           2210.7 16           2210.6 11    23  1                                                                                   
           2291.0 16           2290.9 11    24  1                                                                                   
           2401.8 16           2401.7 11    25  1                                                                                   
           2419.5 16           2419.4 11    26  1                                                                                   
           2483.5 15           2483.5 11    27  1                                                                                   
           2564.9 15           2564.9 11    28  1                                                                                   
           2706.3 16           2706.2 11    29  1                                                                                   
           2720.6 16           2720.5 11    30  1                                                                                   
           2774.9 16           2774.8 11    31  1                                                                                   
           2884.5 16           2884.4 11    32  1                                                                                   
           2930.5 16           2930.4 11    33  1                                                                                   
           3852.4 15           3852.3 11    34 33                                                                                   
           3898.4 15           3898.3 11    34 32                                                                                   
           4008.0 15           4007.9 11    34 31                                                                                   
           4062.3 15           4062.2 11    34 30                                                                                   
           4076.6 15           4076.5 11    34 29                                                                                   
           4217.9 15           4217.9 11    34 28                                                                                   
           4299.3 15           4299.3 11    34 27                                                                                   
           4363.5 15           4363.4 11    34 26                                                                                   
           4381.2 15           4381.1 11    34 25                                                                                   
           4492.0 15           4491.9 11    34 24                                                                                   
           4572.3 15           4572.2 11    34 23                                                                                   
           4594.0 15           4594.0 11    34 22                                                                                   
           4650.7 15           4650.7 11    34 21                                                                                   
            4890.7 4            4890.7 4    34 20                                                                                   
           5238.3 15           5238.2 11    34 19                                                                                   
           5395.9 15           5395.9 11    34 18                                                                                   
           5518.30 4           5518.30 4    34 16                                                                                   
           5650.86 8           5650.83 8    34 15                                                                                   
           5740.21 4           5740.18 4    34 14                                                                                   
           5850.97 8           5850.99 8    34 13                                                                                   
          5867.12 23          5867.21 22    34 12                                                                                   
          6227.89 16          6227.79 10    34 10                                                                                   
           6390.17 4           6390.16 4    34  7                                                                                   
    (1     6418.60 4           6418.65 4    34  6                                                                                   
           6716.9 15           6715.88 7    34  3                                                                                   
      DATA SET  1. ENERGIES CORRECTED BY    .0000000+-  .0000000 KEV     CHISQ/F =  1.180         F= 33
      CHISQ/F =  1.180      (FIT OF   67GAMMAS -  33LEVELS)